  41
Tempo - segundos
VAng: 8100-3010 XINGU--PA500-E
VAng: 8100-9605 XINGU--PA500-T
VAng: 8100-210 XINGU--PA500-IT
VAng: 3010-210 ESTREI-MG500-IT
VAng: 9605-210 T.RIO--RJ500-IT
VAng: 5001-210 P.AFON-BA500-IT
VAng: 8892-210 RIOVT1-RN500-IT
Freq(pu): 8100 XINGU--PA500   
Freq(pu): 3010 ESTREI-MG500   
Freq(pu): 9605 T.RIO--RJ500   
Freq(pu): 5001 P.AFON-BA500   
Freq(pu): 8892 RIOVT1-RN500   
dFreq(pu/s): 8100 XINGU--PA500
dFreq(pu/s): 3010 ESTREI-MG500
dFreq(pu/s): 9605 T.RIO--RJ500
dFreq(pu/s): 5001 P.AFON-BA500
dFreq(pu/s): 8892 RIOVT1-RN500
VAng: 8100-3010 XINGU--PA500-E
VAng: 8100-9605 XINGU--PA500-T
VAng: 3010-18 ESTREI-MG500-ITU
VAng: 9605-18 T.RIO--RJ500-ITU
VAng: 5001-18 P.AFON-BA500-ITU
VAng: 8892-18 RIOVT1-RN500-ITU
VAng: 8100-18 XINGU--PA500-ITU
FNESE: UDV                    
FNS: UDV                      
PG1_N: UDV                    
PG1_N: UDV                    
PG2_NE: UDV                   
PG3_SE: UDV                   
Pr(pu): 8100#1 XINGU--PA500   
Pi(pu): 8100#1 XINGU--PA500   
Pr(pu): 8100#2 XINGU--PA500   
Pi(pu): 8100#2 XINGU--PA500   
Pi(pu): 8100#3 XINGU--PA500   
Pi(pu): 8100#4 XINGU--PA500   
Pr(pu): 8100#4 XINGU--PA500   
Pr(pu): 8100#3 XINGU--PA500   
Ang(deg): 8892 RIOVT1-RN500   
VAng: 8892-3010 RIOVT1-RN500-E
  0.0000000E+00   85.47894       89.91714       75.88738      -9.591562    
  -14.02976       49.66916       69.08982       1.000000       1.000000    
   1.000000       1.000000       1.000000      0.0000000E+00  0.0000000E+00
  0.0000000E+00  0.0000000E+00  0.0000000E+00   85.47894       89.91714    
  -14.70385      -19.14204       44.55687       63.97754       70.77509    
   6240.557       4327.931       14510.68       14510.68       3022.995    
   2576.194       7.509986       7.387553       7.509986       7.387553    
   18.94960       18.94960       19.99996       19.99996       70.28847    
   78.68139    
  4.0000002E-03   85.48131       89.91881       75.89000      -9.591304    
  -14.02881       49.66870       69.09077      0.9999993      0.9999952    
  0.9999964      0.9999939      0.9999962     -2.6047789E-04 -1.7174649E-03
 -1.2861806E-03 -2.2317665E-03 -1.4197766E-03   85.48131       89.91881    
  -14.70467      -19.14217       44.55534       63.97740       70.77663    
   6242.837       4328.199       14510.89       14510.89       3023.624    
   2576.510       7.509654       7.387453       7.509654       7.387453    
   18.94971       18.94971       19.99966       19.99966       70.28639    
   78.68207    
  8.0000004E-03   85.48439       89.92101       75.89339      -9.590999    
  -14.02762       49.66791       69.09155      0.9999983      0.9999887    
  0.9999915      0.9999854      0.9999906     -2.2986313E-04 -1.5901877E-03
 -1.2084114E-03 -2.1043972E-03 -1.4694154E-03   85.48439       89.92101    
  -14.70564      -19.14226       44.55326       63.97690       70.77874    
   6245.865       4328.604       14511.21       14511.21       3024.495    
   2576.909       7.509050       7.387107       7.509050       7.387107    
   18.94975       18.94975       19.99925       19.99925       70.28326    
   78.68254    
  1.2000000E-02   85.48737       89.92318       75.89660      -9.590774    
  -14.02659       49.66694       69.09173      0.9999976      0.9999837    
  0.9999875      0.9999785      0.9999850     -1.6865558E-04 -1.0984526E-03
 -8.6807186E-04 -1.5120383E-03 -1.2848243E-03   85.48737       89.92318    
  -14.70648      -19.14229       44.55124       63.97602       70.78089    
   6248.655       4329.028       14511.61       14511.61       3025.357    
   2577.266       7.508310       7.386497       7.508310       7.386497    
   18.94963       18.94963       19.99895       19.99895       70.27972    
   78.68250    
  1.6000001E-02   85.48931       89.92467       75.89862      -9.590695    
  -14.02605       49.66621       69.09135      0.9999972      0.9999819    
  0.9999860      0.9999760      0.9999822     -8.5864609E-05 -4.4287796E-04
 -3.8538550E-04 -6.1730371E-04 -7.2437804E-04   85.48931       89.92467    
  -14.70688      -19.14223       44.55003       63.97516       70.78244    
   6250.318       4329.334       14511.95       14511.95       3025.909    
   2577.455       7.507739       7.385839       7.507739       7.385839    
   18.94936       18.94936       19.99885       19.99885       70.27696    
   78.68204    
  2.0000000E-02   85.49042       89.92558       75.89974      -9.590681    
  -14.02584       49.66564       69.09052      0.9999970      0.9999821    
  0.9999860      0.9999762      0.9999807     -4.2537478E-05  6.4837375E-05
 -1.2475455E-05  2.4706564E-05 -3.5185521E-04   85.49042       89.92558    
  -14.70697      -19.14213       44.54935       63.97423       70.78344    
   6251.055       4329.518       14512.22       14512.22       3026.228    
   2577.525       7.507467       7.385336       7.507467       7.385336    
   18.94903       18.94903       19.99887       19.99887       70.27474    
   78.68120    
  2.4000000E-02   85.49100       89.92609       75.90036      -9.590641    
  -14.02573       49.66518       69.08958      0.9999968      0.9999833    
  0.9999866      0.9999774      0.9999803     -4.5608758E-05  2.9316987E-04
  1.6595445E-04  3.0388846E-04 -1.1963592E-04   85.49100       89.92609    
  -14.70690      -19.14199       44.54892       63.97332       70.78410    
   6251.290       4329.612       14512.45       14512.45       3026.411    
   2577.537       7.507530       7.385124       7.507530       7.385124    
   18.94874       18.94874       19.99892       19.99892       70.27290    
   78.68023    
  2.8000001E-02   85.49128       89.92636       75.90074      -9.590534    
  -14.02562       49.66477       69.08869      0.9999966      0.9999847    
  0.9999875      0.9999788      0.9999803     -6.5855616E-05  3.6674624E-04
  2.3099735E-04  3.6391240E-04  1.0032607E-05   85.49128       89.92636    
  -14.70674      -19.14182       44.54856       63.97248       70.78454    
   6251.317       4329.649       14512.64       14512.64       3026.530    
   2577.527       7.507875       7.385223       7.507875       7.385223    
   18.94854       18.94854       19.99897       19.99897       70.27129    
   78.67922    
  3.5999998E-02   85.49143       89.92657       75.90125      -9.590184    
  -14.02533       49.66396       69.08733      0.9999960      0.9999873    
  0.9999892      0.9999812      0.9999813     -7.1605355E-05  3.1788668E-04
  2.0631966E-04  2.9066161E-04  1.2439357E-04   85.49143       89.92657    
  -14.70634      -19.14148       44.54780       63.97118       70.78510    
   6251.284       4329.652       14512.92       14512.92       3026.684    
   2577.497       7.508939       7.386013       7.508939       7.386013    
   18.94837       18.94837       19.99896       19.99896       70.26874    
   78.67751    
  4.4000000E-02   85.49148       89.92670       75.90169      -9.589790    
  -14.02502       49.66299       69.08610      0.9999955      0.9999893    
  0.9999905      0.9999826      0.9999823     -6.0626477E-05  2.4243050E-04
  1.5639167E-04  1.8013084E-04  1.2011208E-04   85.49148       89.92670    
  -14.70598      -19.14121       44.54679       63.96991       70.78550    
   6251.254       4329.615       14513.10       14513.10       3026.837    
   2577.474       7.510043       7.387123       7.510043       7.387123    
   18.94833       18.94833       19.99884       19.99884       70.26640    
   78.67589    
  5.2000001E-02   85.49181       89.92706       75.90230      -9.589511    
  -14.02476       49.66198       69.08499      0.9999953      0.9999903    
  0.9999911      0.9999834      0.9999830     -2.9072473E-05  1.2700378E-04
  7.9527388E-05  9.8963610E-05  9.0180692E-05   85.49181       89.92706    
  -14.70581      -19.14107       44.54567       63.96870       70.78600    
   6251.283       4329.581       14513.20       14513.20       3026.992    
   2577.474       7.510654       7.387899       7.510654       7.387899    
   18.94828       18.94828       19.99866       19.99866       70.26416    
   78.67451    
  5.9999999E-02   85.49259       89.92775       75.90316      -9.589429    
  -14.02459       49.66112       69.08411      0.9999954      0.9999904    
  0.9999912      0.9999840      0.9999836      1.7645664E-06  1.9863617E-05
  9.7664188E-06  7.2215575E-05  8.0040496E-05   85.49259       89.92775    
  -14.70590      -19.14106       44.54465       63.96764       70.78670    
   6251.295       4329.553       14513.20       14513.20       3027.115    
   2577.495       7.510787       7.388235       7.510787       7.388235    
   18.94817       18.94817       19.99843       19.99843       70.26206    
   78.67354    
  7.5999998E-02   85.49473       89.92932       75.90511      -9.589612    
  -14.02421       49.65987       69.08294      0.9999951      0.9999896    
  0.9999908      0.9999847      0.9999846     -1.3505785E-05 -4.9375547E-05
 -2.4665380E-05  4.4765504E-05  5.9442136E-05   85.49473       89.92932    
  -14.70648      -19.14108       44.54300       63.96607       70.78825    
   6251.288       4329.527       14513.24       14513.24       3027.273    
   2577.562       7.510363       7.388031       7.510363       7.388031    
   18.94839       18.94839       19.99888       19.99888       70.25834    
   78.67255    
  9.2000000E-02   85.49730       89.93112       75.90734      -9.589954    
  -14.02378       49.65869       69.08170      0.9999948      0.9999884    
  0.9999901      0.9999846      0.9999845     -1.9818168E-05 -7.4106967E-05
 -4.3622280E-05 -2.7948995E-06 -6.1406636E-06   85.49730       89.93112    
  -14.70723      -19.14105       44.54142       63.96441       70.79006    
   6251.322       4329.540       14513.28       14513.28       3027.423    
   2577.647       7.509678       7.387392       7.509678       7.387392    
   18.94892       18.94892       19.99942       19.99942       70.25441    
   78.67165    
  0.1080000       85.49988       89.93303       75.90966      -9.590214    
  -14.02336       49.65734       69.08018      0.9999943      0.9999874    
  0.9999892      0.9999839      0.9999836     -3.2051656E-05 -6.3686988E-05
 -5.4378754E-05 -4.5090310E-05 -5.4450324E-05   85.49988       89.93303    
  -14.70785      -19.14100       44.53970       63.96254       70.79203    
   6251.419       4329.574       14513.33       14513.33       3027.581    
   2577.730       7.509128       7.386738       7.509128       7.386738    
   18.94884       18.94884       19.99931       19.99931       70.25013    
   78.67039    
  0.1240000       85.50236       89.93497       75.91203      -9.590325    
  -14.02294       49.65580       69.07856      0.9999936      0.9999866    
  0.9999883      0.9999828      0.9999826     -4.1108335E-05 -5.0113606E-05
 -5.6726381E-05 -6.6382061E-05 -6.5452921E-05   85.50236       89.93497    
  -14.70827      -19.14088       44.53786       63.96062       70.79409    
   6251.509       4329.604       14513.42       14513.42       3027.704    
   2577.804       7.508991       7.386515       7.508991       7.386515    
   18.94878       18.94878       19.99922       19.99922       70.24570    
   78.66888    
  0.1560000       85.50745       89.93907       75.91716      -9.590287    
  -14.02191       49.65260       69.07582      0.9999924      0.9999852    
  0.9999867      0.9999808      0.9999812     -3.8309645E-05 -4.5490568E-05
 -5.0058508E-05 -6.2617270E-05 -4.4647590E-05   85.50745       89.93907    
  -14.70867      -19.14029       44.53422       63.95744       70.79877    
   6251.614       4329.654       14513.59       14513.59       3027.728    
   2577.926       7.508965       7.386476       7.508965       7.386476    
   18.94846       18.94846       19.99887       19.99887       70.23726    
   78.66611    
  0.1880000       85.51285       89.94350       75.92288      -9.589969    
  -14.02062       49.64906       69.07288      0.9999914      0.9999838    
  0.9999853      0.9999787      0.9999794     -3.1141859E-05 -4.2690703E-05
 -4.4912918E-05 -6.6602151E-05 -5.5870682E-05   85.51285       89.94350    
  -14.70856      -19.13921       44.53047       63.95428       70.80429    
   6251.557       4329.683       14513.76       14513.76       3027.543    
   2578.016       7.508802       7.386353       7.508802       7.386353    
   18.94814       18.94814       19.99855       19.99855       70.22852    
   78.66284    
  0.2000000       85.51494       89.94522       75.92518      -9.589767    
  -14.02005       49.64744       69.07109      0.9999911      0.9999834    
  0.9999848      0.9999775      0.9999777     -2.3702874E-05 -3.8815695E-05
 -3.9893763E-05 -9.8982615E-05 -1.3868736E-04   85.51494       89.94522    
  -14.70838      -19.13866       44.52882       63.95248       70.80656    
   6251.454       4329.685       14513.86       14513.86       3027.478    
   2578.039       7.508676       7.386244       7.508676       7.386244    
   18.94807       18.94807       19.99859       19.99859       70.22455    
   78.66087    
  0.2000000       90.90879       93.31116       78.99429      -11.91451    
  -14.31688       50.54675       70.07738      0.9999911      0.9999834    
  0.9999848      0.9999775      0.9999777     -2.3702874E-05 -3.8815695E-05
 -3.9893763E-05 -9.8982615E-05 -1.3868736E-04   90.90879       93.31116    
  -17.37205      -19.77442       45.08921       64.61984       73.53674    
   6307.308       4429.797       13534.31       13534.31       3008.659    
   2744.589      0.0000000E+00  0.0000000E+00  0.0000000E+00  0.0000000E+00
   19.07154       19.07154       20.39712       20.39712       70.40022    
   81.99188    
  0.2040000       90.92397       93.25588       79.01852      -11.90545    
  -14.23736       50.58314       70.13623      0.9999391      0.9999315    
   1.000047      0.9999748       1.000003      8.5059023E-03 -1.7939083E-02
  1.4688727E-02 -3.3724892E-03  4.2644106E-03   90.92397       93.25588    
  -17.34694      -19.67886       45.14164       64.69473       73.57703    
   6316.280       4429.811       13545.73       13545.73       3010.610    
   2740.021      0.0000000E+00  0.0000000E+00  0.0000000E+00  0.0000000E+00
   19.21812       19.21812       20.53399       20.53399       70.41216    
   82.04167    
  0.2090000       90.99290       93.26085       79.09252      -11.90038    
  -14.16833       50.62207       70.18518      0.9999875      0.9998451    
   1.000061      0.9999459      0.9999875      1.0172084E-02 -1.7032659E-02
 -2.1100584E-03 -6.2019178E-03 -4.8622461E-03   90.99290       93.26085    
  -17.32688      -19.59483       45.19557       64.75869       73.66602    
   6330.542       4430.098       13532.24       13532.24       3015.269    
   2735.058      0.0000000E+00  0.0000000E+00  0.0000000E+00  0.0000000E+00
   19.34179       19.34179       20.53052       20.53052       70.40634    
   82.08556    
  0.2130000       91.06268       93.29839       79.15864      -11.90404    
  -14.13975       50.65242       70.21960       1.000034      0.9997754    
   1.000018      0.9999274      0.9999699      1.1908122E-02 -1.8215533E-02
 -1.3902578E-02 -4.0890467E-03 -4.1273362E-03   91.06268       93.29839    
  -17.32289      -19.55861       45.23357       64.80074       73.73978    
   6338.941       4431.154       13523.45       13523.45       3018.635    
   2731.958      0.0000000E+00  0.0000000E+00  0.0000000E+00  0.0000000E+00
   19.39405       19.39405       20.51538       20.51538       70.39775    
   82.12363    
  0.2170000       91.14678       93.36263       79.23189      -11.91490    
  -14.13074       50.68892       70.25878       1.000083      0.9997058    
  0.9999466      0.9999238      0.9999644      1.2393793E-02 -1.7409632E-02
 -1.7952640E-02 -9.0266328E-04 -1.3769295E-03   91.14678       93.36263    
  -17.32940      -19.54525       45.27442       64.84428       73.81738    
   6344.564       4432.785       13516.78       13516.78       3020.672    
   2729.761      0.0000000E+00  0.0000000E+00  0.0000000E+00  0.0000000E+00
   19.41366       19.41366       20.49550       20.49550       70.39373    
   82.17368    
  0.2210000       91.24150       93.44330       79.31074      -11.93076    
  -14.13256       50.72991       70.30172       1.000137      0.9996398    
  0.9998676      0.9999312      0.9999688      1.3460195E-02 -1.6487023E-02
 -1.9746454E-02  1.8439384E-03  1.0944254E-03   91.24150       93.44330    
  -17.34312      -19.54492       45.31754       64.88935       73.89837    
   6347.695       4434.805       13512.42       13512.42       3021.460    
   2727.951      0.0000000E+00  0.0000000E+00  0.0000000E+00  0.0000000E+00
   19.42003       19.42003       20.47557       20.47557       70.39447    
   82.23248    
  0.2250000       91.34534       93.53745       79.39461      -11.95073    
  -14.14285       50.77405       70.34770       1.000193      0.9995781    
  0.9997866      0.9999446      0.9999795      1.3936524E-02 -1.5423631E-02
 -2.0241948E-02  3.3583944E-03  2.6818523E-03   91.34534       93.53745    
  -17.36272      -19.55483       45.36207       64.93572       73.98262    
   6349.273       4437.137       13510.30       13510.30       3021.409    
   2726.447      0.0000000E+00  0.0000000E+00  0.0000000E+00  0.0000000E+00
   19.41255       19.41255       20.45634       20.45634       70.39900    
   82.29844    
  0.2290000       91.45647       93.64083       79.48296      -11.97352    
  -14.15788       50.81950       70.39536       1.000248      0.9995215    
  0.9997102      0.9999585      0.9999918      1.3813374E-02 -1.4166775E-02
 -1.9113924E-02  3.4680574E-03  3.0770004E-03   91.45647       93.64083    
  -17.38652      -19.57087       45.40650       64.98235       74.06995    
   6350.563       4439.825       13510.43       13510.43       3021.051    
   2725.273      0.0000000E+00  0.0000000E+00  0.0000000E+00  0.0000000E+00
   19.39974       19.39974       20.44026       20.44026       70.40538    
   82.36887    
  0.2370000       91.69248       93.86027       79.66876      -12.02372    
  -14.19151       50.90760       70.48936       1.000343      0.9994338    
  0.9995959      0.9999746       1.000008      1.1863431E-02 -1.0965025E-02
 -1.4280079E-02  2.0122312E-03  2.0423697E-03   91.69248       93.86027    
  -17.44113      -19.60891       45.49019       65.07195       74.25136    
   6355.017       4445.970       13515.85       13515.85       3020.779    
   2723.174      0.0000000E+00  0.0000000E+00  0.0000000E+00  0.0000000E+00
   19.37103       19.37103       20.41696       20.41696       70.41782    
   82.51308    
  0.2450000       91.94361       94.09029       79.86581      -12.07780    
  -14.22448       50.99368       70.58461       1.000428      0.9993634    
  0.9995142      0.9999815       1.000021      1.0634147E-02 -8.7958695E-03
 -1.0226225E-02  8.5681962E-04  1.5538801E-03   91.94361       94.09029    
  -17.50188      -19.64856       45.56960       65.16051       74.44172    
   6361.179       4452.667       13526.37       13526.37       3020.999    
   2721.222      0.0000000E+00  0.0000000E+00  0.0000000E+00  0.0000000E+00
   19.35917       19.35917       20.37841       20.37841       70.43113    
   82.66240    
  0.2530000       92.20960       94.33159       80.07552      -12.13409    
  -14.25608       51.07929       70.68189       1.000506      0.9993060    
  0.9994545      0.9999821       1.000029      9.7788954E-03 -7.1740211E-03
 -7.4546323E-03  8.1726896E-05  1.0980255E-03   92.20960       94.33159    
  -17.56594      -19.68793       45.64744       65.25004       74.64366    
   6369.042       4459.929       13538.47       13538.47       3021.662    
   2719.365      0.0000000E+00  0.0000000E+00  0.0000000E+00  0.0000000E+00
   19.34157       19.34157       20.38841       20.38841       70.44479    
   82.81598    
  0.2610000       92.48187       94.57771       80.28922      -12.19265    
  -14.28849       51.16813       70.78399       1.000565      0.9992575    
  0.9994068      0.9999841       1.000040      7.3421765E-03 -6.0631656E-03
 -5.9611686E-03  2.5597084E-04  1.3087481E-03   92.48187       94.57771    
  -17.63268      -19.72851       45.72811       65.34396       74.84920    
   6376.542       4467.387       13556.57       13556.57       3021.939    
   2717.275      0.0000000E+00  0.0000000E+00  0.0000000E+00  0.0000000E+00
   19.33101       19.33101       20.39963       20.39963       70.46138    
   82.97664    
  0.2690000       92.75105       94.81635       80.49918      -12.25188    
  -14.31717       51.26115       70.89138       1.000598      0.9992192    
  0.9993763      0.9999899       1.000053      4.1441834E-03 -4.7919336E-03
 -3.8117627E-03  7.2332018E-04  1.7054384E-03   92.75105       94.81635    
  -17.69986      -19.76515       45.81317       65.44341       75.05120    
   6382.592       4474.413       13576.27       13576.27       3021.495    
   2714.849      0.0000000E+00  0.0000000E+00  0.0000000E+00  0.0000000E+00
   19.33152       19.33152       20.42500       20.42500       70.48209    
   83.14326    
  0.2770000       93.02286       95.05293       80.71277      -12.31009    
  -14.34015       51.35758       71.00315       1.000625      0.9991901    
  0.9993606      0.9999963       1.000067      3.2936055E-03 -3.6317913E-03
 -1.9638943E-03  8.0138899E-04  1.7030530E-03   93.02286       95.05293    
  -17.76560      -19.79566       45.90207       65.54765       75.25726    
   6388.053       4480.838       13584.69       13584.69       3020.679    
   2712.409      0.0000000E+00  0.0000000E+00  0.0000000E+00  0.0000000E+00
   19.32937       19.32937       20.40223       20.40223       70.50554    
   83.31324    
  0.2850000       93.28809       95.27750       80.92220      -12.36590    
  -14.35531       51.45596       71.11709       1.000633      0.9991700    
  0.9993590       1.000001       1.000077      1.0786256E-03 -2.5106992E-03
 -1.9804529E-04  5.6247541E-04  1.2516568E-03   93.28809       95.27750    
  -17.82807      -19.81748       45.99379       65.65491       75.46002    
   6393.581       4487.328       13607.33       13607.33       3020.045    
   2709.285      0.0000000E+00  0.0000000E+00  0.0000000E+00  0.0000000E+00
   19.34821       19.34821       20.45893       20.45893       70.52951    
   83.48299    
  0.2930000       93.55592       95.50067       81.13699      -12.41892    
  -14.36368       51.56064       71.23828       1.000642      0.9991544    
  0.9993633       1.000009       1.000090      1.1530729E-03 -1.9448412E-03
  5.3333951E-04  9.7680441E-04  1.6659088E-03   93.55592       95.50067    
  -17.88764      -19.83240       46.09192       65.76956       75.66828    
   6397.896       4492.634       13624.31       13624.31       3018.904    
   2706.167      0.0000000E+00  0.0000000E+00  0.0000000E+00  0.0000000E+00
   19.37810       19.37810       20.52914       20.52914       70.55757    
   83.65720    
  0.3090000       94.11376       95.98351       81.59473      -12.51904    
  -14.38879       51.78376       71.49274       1.000676      0.9991320    
  0.9993445       1.000022       1.000108      2.1017024E-03 -1.4041287E-03
 -1.1764882E-03  8.4900321E-04  1.0966018E-03   94.11376       95.98351    
  -17.99906      -19.86881       46.30374       66.01272       76.11470    
   6406.857       4503.037       13657.34       13657.34       3016.849    
   2699.620      0.0000000E+00  0.0000000E+00  0.0000000E+00  0.0000000E+00
   19.45620       19.45620       20.59751       20.59751       70.61705    
   84.01178    
  0.3250000       94.66910       96.47089       82.06406      -12.60505    
  -14.40683       52.01898       71.76010       1.000700      0.9991276    
  0.9993331       1.000035       1.000124      1.4743020E-03 -2.7194744E-04
 -7.1050174E-04  8.1823632E-04  1.0201316E-03   94.66910       96.47089    
  -18.09183      -19.89361       46.53220       66.27332       76.57727    
   6416.759       4513.953       13674.27       13674.27       3014.619    
   2693.693      0.0000000E+00  0.0000000E+00  0.0000000E+00  0.0000000E+00
   19.46233       19.46233       20.62955       20.62955       70.68258    
   84.36515    
  0.3370000       95.08950       96.84512       82.43102      -12.65848    
  -14.41410       52.20227       71.96931       1.000727      0.9991367    
  0.9993320       1.000046       1.000140      2.3186598E-03  7.5821363E-04
 -9.6570548E-05  9.3346811E-04  1.2779896E-03   95.08950       96.84512    
  -18.14691      -19.90253       46.71384       66.48088       76.94259    
   6424.683       4522.477       13703.27       13703.27       3013.215    
   2687.935      0.0000000E+00  0.0000000E+00  0.0000000E+00  0.0000000E+00
   19.50036       19.50036       20.66415       20.66415       70.73753    
   84.62779    
  0.3490000       95.51971       97.23620       82.81760      -12.70210    
  -14.41859       52.39127       72.18507       1.000769      0.9991529    
  0.9993315       1.000058       1.000155      3.5058791E-03  1.3474262E-03
 -3.5990102E-05  9.6105126E-04  1.2790220E-03   95.51971       97.23620    
  -18.18947      -19.90596       46.90390       66.69770       77.33024    
   6432.870       4531.288       13724.83       13724.83       3011.636    
   2682.167      0.0000000E+00  0.0000000E+00  0.0000000E+00  0.0000000E+00
   19.55186       19.55186       20.69940       20.69940       70.79685    
   84.88717    
  0.3610000       95.96230       97.65099       83.22538      -12.73692    
  -14.42561       52.58632       72.40818       1.000824      0.9991732    
  0.9993251       1.000072       1.000173      4.5368103E-03  1.6945372E-03
 -5.3494459E-04  1.1220310E-03  1.4767873E-03   95.96230       97.65099    
  -18.22076      -19.90945       47.10248       66.92434       77.74154    
   6440.753       4540.020       13734.28       13734.28       3009.663    
   2676.477      0.0000000E+00  0.0000000E+00  0.0000000E+00  0.0000000E+00
   19.54969       19.54969       20.65573       20.65573       70.86208    
   85.14510    
  0.3730000       96.40282       98.06683       83.64188      -12.76095    
  -14.42495       52.78445       72.63403       1.000871      0.9992023    
  0.9993329       1.000085       1.000188      3.9466792E-03  2.4196710E-03
  6.5213477E-04  1.1331418E-03  1.3134731E-03   96.40282       98.06683    
  -18.23815      -19.90215       47.30724       67.15682       78.16467    
   6448.944       4549.250       13772.86       13772.86       3007.861    
   2669.096      0.0000000E+00  0.0000000E+00  0.0000000E+00  0.0000000E+00
   19.60440       19.60440       20.76775       20.76775       70.93078    
   85.39498    
  0.3850000       96.85484       98.49693       84.08108      -12.77376    
  -14.41585       52.98641       72.86473       1.000933      0.9992356    
  0.9993489       1.000098       1.000204      5.1178066E-03  2.7789306E-03
  1.3378391E-03  1.0833242E-03  1.3193632E-03   96.85484       98.49693    
  -18.24173      -19.88382       47.51844       67.39676       78.61311    
   6457.739       4558.927       13794.56       13794.56       3005.608    
   2662.059      0.0000000E+00  0.0000000E+00  0.0000000E+00  0.0000000E+00
   19.62764       19.62764       20.78112       20.78112       71.00375    
   85.63849    
  0.3970000       97.31023       98.93744       84.53289      -12.77734    
  -14.40455       53.19172       73.09879       1.000989      0.9992695    
  0.9993619       1.000111       1.000219      4.6987464E-03  2.8287601E-03
  1.0807317E-03  1.0598827E-03  1.2095334E-03   97.31023       98.93744    
  -18.23336      -19.86058       47.73569       67.64276       79.07687    
   6467.426       4569.784       13823.32       13823.32       3003.470    
   2654.824      0.0000000E+00  0.0000000E+00  0.0000000E+00  0.0000000E+00
   19.63956       19.63956       20.80219       20.80219       71.07997    
   85.87613    
  0.4090000       97.77783       99.40089       85.00400      -12.77384    
  -14.39688       53.40190       73.33819       1.001051      0.9992997    
  0.9993635       1.000125       1.000234      5.1524793E-03  2.5116215E-03
  1.2731495E-04  1.1403977E-03  1.2882187E-03   97.77783       99.40089    
  -18.21586      -19.83891       47.95988       67.89616       79.56198    
   6477.487       4581.331       13856.63       13856.63       3001.227    
   2647.421      0.0000000E+00  0.0000000E+00  0.0000000E+00  0.0000000E+00
   19.68204       19.68204       20.84304       20.84304       71.16061    
   86.11203    
  0.4210000       98.25347       99.88131       85.48892      -12.76455    
  -14.39239       53.61723       73.58361       1.001109      0.9993263    
  0.9993593       1.000140       1.000252      4.8360755E-03  2.2174197E-03
 -3.5284564E-04  1.2819326E-03  1.4816540E-03   98.25347       99.88131    
  -18.19077      -19.81861       48.19101       68.15739       80.06271    
   6487.524       4593.246       13887.67       13887.67       2998.669    
   2640.130      0.0000000E+00  0.0000000E+00  0.0000000E+00  0.0000000E+00
   19.70066       19.70066       20.87398       20.87398       71.24682    
   86.34815    
  0.4330000       98.74002       100.3808       85.98907      -12.75095    
  -14.39175       53.83819       73.83573       1.001166      0.9993483    
  0.9993501       1.000157       1.000272      4.7811829E-03  1.8280495E-03
 -7.6282676E-04  1.4045119E-03  1.6572246E-03   98.74002       100.3808    
  -18.16007      -19.80087       48.42907       68.42661       80.57996    
   6497.499       4605.214       13919.55       13919.55       2995.862    
   2632.798      0.0000000E+00  0.0000000E+00  0.0000000E+00  0.0000000E+00
   19.72082       19.72082       20.87293       20.87293       71.33902    
   86.58669    
  0.4570000       99.73621       101.4123       87.02180      -12.71441    
  -14.39051       54.29098       74.34415       1.001252      0.9993771    
  0.9993408       1.000183       1.000293      3.5540869E-03  1.2004132E-03
 -3.8873489E-04  1.0741655E-03  8.9570374E-04   99.73621       101.4123    
  -18.08631      -19.76242       48.91908       68.97225       81.64989    
   6518.022       4629.474       13980.81       13980.81       2990.657    
   2618.620      0.0000000E+00  0.0000000E+00  0.0000000E+00  0.0000000E+00
   19.73291       19.73291       20.87981       20.87981       71.52628    
   87.05856    
  0.4810000       100.7616       102.4739       88.08922      -12.67234    
  -14.38470       54.76400       74.87614       1.001326      0.9993948    
  0.9993402       1.000214       1.000327      3.0898326E-03  7.4104650E-04
 -2.3055105E-05  1.3283188E-03  1.3931580E-03   100.7616       102.4739    
  -18.00472      -19.71708       49.43162       69.54375       82.75684    
   6539.016       4653.952       14045.02       14045.02       2984.998    
   2605.004      0.0000000E+00  0.0000000E+00  0.0000000E+00  0.0000000E+00
   19.75916       19.75916       20.91100       20.91100       71.73549    
   87.54847    
  0.5050000       101.8280       103.5749       89.19268      -12.63535    
  -14.38220       55.26014       75.43589       1.001395      0.9993954    
  0.9993343       1.000251       1.000369      2.8940029E-03  2.3088989E-05
 -2.4619832E-04  1.5260042E-03  1.7599677E-03   101.8280       103.5749    
  -17.92853      -19.67537       49.96696       70.14272       83.89951    
   6560.524       4678.903       14109.32       14109.32       2978.596    
   2592.539      0.0000000E+00  0.0000000E+00  0.0000000E+00  0.0000000E+00
   19.76248       19.76248       20.93803       20.93803       71.96986    
   88.07124    
  0.5290000       102.9367       104.7124       90.32571      -12.61101    
  -14.38672       55.78051       76.02217       1.001453      0.9993778    
  0.9993197       1.000289       1.000412      2.4225337E-03 -7.3297473E-04
 -6.0912862E-04  1.5674138E-03  1.7737473E-03   102.9367       104.7124    
  -17.86782      -19.64353       50.52369       70.76536       85.06890    
   6583.545       4704.483       14171.22       14171.22       2972.403    
   2582.689      0.0000000E+00  0.0000000E+00  0.0000000E+00  0.0000000E+00
   19.78308       19.78308       20.94958       20.94958       72.22581    
   88.63318    
  0.5530000       104.0857       105.8824       91.48139      -12.60433    
  -14.40101       56.32462       76.63479       1.001502      0.9993492    
  0.9993007       1.000329       1.000457      2.0086905E-03 -1.1924247E-03
 -7.9060189E-04  1.6679897E-03  1.8762370E-03   104.0857       105.8824    
  -17.82907      -19.62576       51.09988       71.41005       86.25665    
   6606.697       4729.467       14230.04       14230.04       2966.151    
   2574.457      0.0000000E+00  0.0000000E+00  0.0000000E+00  0.0000000E+00
   19.79308       19.79308       20.96197       20.96197       72.50561    
   89.23912    
  0.5770000       105.2751       107.0826       92.65837      -12.61676    
  -14.42424       56.89260       77.27411       1.001540      0.9993104    
  0.9992770       1.000366       1.000500      1.6113289E-03 -1.6158014E-03
 -9.8675885E-04  1.5688268E-03  1.7871637E-03   105.2751       107.0826    
  -17.81629      -19.62377       51.69307       72.07458       87.45884    
   6631.187       4753.804       14283.33       14283.33       2960.640    
   2569.054      0.0000000E+00  0.0000000E+00  0.0000000E+00  0.0000000E+00
   19.80556       19.80556       20.96992       20.96992       72.80608    
   89.89087    
  0.6010000       106.5002       108.3074       93.85319      -12.64698    
  -14.45417       57.49313       77.94874       1.001573      0.9992701    
  0.9992552       1.000414       1.000552      1.3505273E-03 -1.6779987E-03
 -9.0606342E-04  1.9763687E-03  2.1970437E-03   106.5002       108.3074    
  -17.82849      -19.63569       52.31162       72.76723       88.67167    
   6654.919       4777.121       14331.51       14331.51       2954.557    
   2566.496      0.0000000E+00  0.0000000E+00  0.0000000E+00  0.0000000E+00
   19.80682       19.80682       20.97270       20.97270       73.13763    
   90.59573    
  0.6250000       107.7427       109.5392       95.05136      -12.69137    
  -14.48780       58.12057       78.64999       1.001601      0.9992471    
  0.9992516       1.000474       1.000614      1.1841316E-03 -9.6119201E-04
 -1.5115515E-04  2.5011627E-03  2.5883208E-03   107.7427       109.5392    
  -17.86001      -19.65645       52.95193       73.48135       89.88272    
   6674.315       4798.489       14374.15       14374.15       2946.288    
   2563.007      0.0000000E+00  0.0000000E+00  0.0000000E+00  0.0000000E+00
   19.78827       19.78827       20.97912       20.97912       73.50469    
   91.34136    
  0.6490000       109.0181       110.8081       96.26829      -12.74982    
  -14.53986       58.78380       79.38202       1.001627      0.9992150    
  0.9992238       1.000532       1.000668      1.0775884E-03 -1.3361517E-03
 -1.1591009E-03  2.4226962E-03  2.2429803E-03   109.0181       110.8081    
  -17.91530      -19.70533       53.61832       74.21654       91.10281    
   6693.786       4820.270       14412.28       14412.28       2939.228    
   2564.734      0.0000000E+00  0.0000000E+00  0.0000000E+00  0.0000000E+00
   19.82139       19.82139       20.97924       20.97924       73.89490    
   92.13184    
  0.6730000       110.2978       112.0853       97.48080      -12.81703    
  -14.60450       59.46433       80.13455       1.001649      0.9992057    
  0.9992124       1.000591       1.000729      8.9985313E-04 -3.8760508E-04
 -4.7544838E-04  2.4636423E-03  2.5223705E-03   110.2978       112.0853    
  -17.98340      -19.77088       54.29795       74.96818       92.31442    
   6711.522       4840.050       14445.06       14445.06       2932.540    
   2564.521      0.0000000E+00  0.0000000E+00  0.0000000E+00  0.0000000E+00
   19.78275       19.78275       20.96553       20.96553       74.31811    
   92.95158    
  0.6970000       111.5690       113.3580       98.68143      -12.88758    
  -14.67658       60.15751       80.90507       1.001664      0.9992166    
  0.9992180       1.000650       1.000794      6.6259416E-04  4.5164779E-04
  2.3242424E-04  2.4487139E-03  2.7092439E-03   111.5690       113.3580    
  -18.06021      -19.84921       54.98487       75.73244       93.50880    
   6729.619       4857.858       14472.24       14472.24       2925.834    
   2563.537      0.0000000E+00  0.0000000E+00  0.0000000E+00  0.0000000E+00
   19.76665       19.76665       20.95604       20.95604       74.77493    
   93.79265    
  0.7210000       112.8492       114.6556       99.88613      -12.96310    
  -14.76950       60.87816       81.70387       1.001673      0.9992132    
  0.9991956       1.000702       1.000850      3.5288429E-04 -1.3915736E-04
 -9.3456911E-04  2.1907620E-03  2.3446858E-03   112.8492       114.6556    
  -18.15136      -19.95775       55.68990       76.51561       94.69788    
   6751.142       4876.078       14495.93       14495.93       2921.241    
   2567.710      0.0000000E+00  0.0000000E+00  0.0000000E+00  0.0000000E+00
   19.78655       19.78655       20.94712       20.94712       75.25468    
   94.66697    
  0.7450000       114.0903       115.9184       101.0593      -13.03091    
  -14.85902       61.59453       82.49104       1.001681      0.9992571    
  0.9992263       1.000759       1.000901      3.3558247E-04  1.8303834E-03
  1.2798249E-03  2.3640350E-03  2.1117101E-03   114.0903       115.9184    
  -18.23142      -20.05952       56.39402       77.29053       95.85884    
   6771.098       4891.399       14515.81       14515.81       2918.596    
   2564.756      0.0000000E+00  0.0000000E+00  0.0000000E+00  0.0000000E+00
   19.72129       19.72129       20.92448       20.92448       75.75560    
   95.52195    
  0.7690000       115.3314       117.1979       102.2299      -13.10150    
  -14.96798       62.33968       83.30252       1.001676      0.9992679    
  0.9992135       1.000809       1.000943     -2.2531278E-04  4.4978375E-04
 -5.3123065E-04  2.0757446E-03  1.7648964E-03   115.3314       117.1979    
  -18.32403      -20.19051       57.11715       78.07999       97.00735    
   6793.594       4905.855       14534.34       14534.34       2919.120    
   2567.720      0.0000000E+00  0.0000000E+00  0.0000000E+00  0.0000000E+00
   19.77134       19.77134       20.93145       20.93145       76.27135    
   96.40401    
  0.7930000       116.5741       118.4928       103.3995      -13.17457    
  -15.09332       63.10752       84.13560       1.001679      0.9992768    
  0.9991971       1.000862       1.000992      1.2992590E-04  3.6843756E-04
 -6.8645587E-04  2.2111661E-03  2.0227942E-03   116.5741       118.4928    
  -18.42157      -20.34032       57.86053       78.88860       98.15250    
   6815.667       4919.483       14552.59       14552.59       2922.839    
   2572.426      0.0000000E+00  0.0000000E+00  0.0000000E+00  0.0000000E+00
   19.72847       19.72847       20.90929       20.90929       76.81209    
   97.31017    
  0.8170000       117.7287       119.6875       104.4881      -13.24052    
  -15.19934       63.85005       84.93771       1.001668      0.9993616    
  0.9992832       1.000933       1.001054     -4.3724952E-04  3.5334060E-03
  3.5887014E-03  2.9486520E-03  2.6145817E-03   117.7287       119.6875    
  -18.50028      -20.45910       58.59029       79.67795       99.22837    
   6828.771       4928.603       14556.62       14556.62       2923.509    
   2562.009      0.0000000E+00  0.0000000E+00  0.0000000E+00  0.0000000E+00
   19.69413       19.69413       20.90803       20.90803       77.38721    
   98.17822    
  0.8410000       118.8999       120.9078       105.5831      -13.31682    
  -15.32472       64.62625       85.77065       1.001662      0.9993816    
  0.9992943       1.000993       1.001108     -2.4015694E-04  8.3333038E-04
  4.6380787E-04  2.4984905E-03  2.2218432E-03   118.8999       120.9078    
  -18.60183      -20.60972       59.34125       80.48564       100.2981    
   6844.952       4938.526       14565.94       14565.94       2923.359    
   2561.960      0.0000000E+00  0.0000000E+00  0.0000000E+00  0.0000000E+00
   19.69997       19.69997       20.89418       20.89418       77.98053    
   99.08747    
  0.8650000       120.0649       122.1310       106.6678      -13.39711    
  -15.46318       65.41727       86.61464       1.001658      0.9993951    
  0.9992942       1.001044       1.001152     -2.0156613E-04  5.6293746E-04
 -4.3735176E-06  2.1434764E-03  1.8528597E-03   120.0649       122.1310    
  -18.70630      -20.77238       60.10808       81.30544       101.3586    
   6864.414       4948.690       14571.56       14571.56       2926.006    
   2561.613      0.0000000E+00  0.0000000E+00  0.0000000E+00  0.0000000E+00
   19.68737       19.68737       20.87416       20.87416       78.58708    
   100.0117    
  0.8890000       121.2073       123.3329       107.7268      -13.48053    
  -15.60611       66.21029       87.45773       1.001649      0.9994181    
  0.9993096       1.001090       1.001192     -3.7711786E-04  9.5897634E-04
  6.4253353E-04  1.9023229E-03  1.6430679E-03   121.2073       123.3329    
  -18.81042      -20.93601       60.88039       82.12783       102.3969    
   6885.605       4958.499       14575.47       14575.47       2930.414    
   2559.974      0.0000000E+00  0.0000000E+00  0.0000000E+00  0.0000000E+00
   19.66639       19.66639       20.85098       20.85098       79.20557    
   100.9383    
  0.9130000       122.3615       124.5504       108.7855      -13.57599    
  -15.76485       67.02679       88.32288       1.001636      0.9994074    
  0.9992915       1.001127       1.001224     -5.3780182E-04 -4.4840650E-04
 -7.5695914E-04  1.5381783E-03  1.3578504E-03   122.3615       124.5504    
  -18.93135      -21.12021       61.67142       82.96751       103.4302    
   6909.639       4968.619       14581.18       14581.18       2937.711    
   2562.251      0.0000000E+00  0.0000000E+00  0.0000000E+00  0.0000000E+00
   19.67903       19.67903       20.83777       20.83777       79.83133    
   101.8989    
  0.9370000       123.4555       125.6906       109.7843      -13.67125    
  -15.90629       67.82526       89.16341       1.001622      0.9994581    
  0.9993568       1.001180       1.001269     -5.6610140E-04  2.1142198E-03
  2.7236354E-03  2.2178132E-03  1.8471878E-03   123.4555       125.6906    
  -19.03952      -21.27456       62.45699       83.79514       104.4160    
   6925.180       4974.780       14580.73       14580.73       2945.064    
   2554.643      0.0000000E+00  0.0000000E+00  0.0000000E+00  0.0000000E+00
   19.61971       19.61971       20.81417       20.81417       80.47814    
   102.8347    
  0.9610000       124.5983       126.8898       110.8158      -13.78246    
  -16.07400       68.66462       90.04788       1.001615      0.9994287    
  0.9993232       1.001212       1.001299     -3.0534505E-04 -1.2224851E-03
 -1.3980381E-03  1.3169023E-03  1.2815895E-03   124.5983       126.8898    
  -19.17787      -21.46940       63.26922       84.65247       105.4204    
   6948.851       4982.474       14579.06       14579.06       2951.680    
   2560.450      0.0000000E+00  0.0000000E+00  0.0000000E+00  0.0000000E+00
   19.60972       19.60972       20.74719       20.74719       81.12753    
   103.8303    
  0.9850000       125.7004       128.0452       111.8074      -13.89297    
  -16.23782       69.49999       90.92098       1.001617      0.9994642    
  0.9993601       1.001270       1.001349      1.1449418E-04  1.4777563E-03
  1.5371793E-03  2.4257116E-03  2.0869605E-03   125.7004       128.0452    
  -19.30088      -21.64574       64.09207       85.51308       106.3995    
   6959.448       4986.351       14567.31       14567.31       2958.723    
   2553.220      0.0000000E+00  0.0000000E+00  0.0000000E+00  0.0000000E+00
   19.56006       19.56006       20.70245       20.70245       81.80281    
   104.8140    
   1.009000       126.8317       129.2373       112.8196      -14.01213    
  -16.41769       70.36961       91.83081       1.001608      0.9994393    
  0.9993281       1.001300       1.001379     -3.7518490E-04 -1.0366426E-03
 -1.3332602E-03  1.2754918E-03  1.2291094E-03   126.8317       129.2373    
  -19.44337      -21.84893       64.93837       86.39957       107.3883    
   6979.529       4992.891       14561.78       14561.78       2966.010    
   2556.898      0.0000000E+00  0.0000000E+00  0.0000000E+00  0.0000000E+00
   19.52937       19.52937       20.65968       20.65968       82.47543    
   105.8429    
   1.033000       127.9365       130.3952       113.8078      -14.12874    
  -16.58737       71.24623       92.74248       1.001597      0.9994488    
  0.9993424       1.001340       1.001412     -4.6955928E-04  3.9274976E-04
  5.9214013E-04  1.6385043E-03  1.3916795E-03   127.9365       130.3952    
  -19.57497      -22.03361       65.80000       87.29624       108.3615    
   6994.059       4996.911       14556.14       14556.14       2973.640    
   2557.272      0.0000000E+00  0.0000000E+00  0.0000000E+00  0.0000000E+00
   19.48102       19.48102       20.63587       20.63587       83.15810    
   106.8712    
   1.057000       129.0159       131.5191       114.7754      -14.24046    
  -16.74367       72.12691       93.66494       1.001590      0.9994782    
  0.9993830       1.001382       1.001459     -2.8037760E-04  1.2285305E-03
  1.6921713E-03  1.7591367E-03  1.9423540E-03   129.0159       131.5191    
  -19.69802      -22.20123       66.66936       88.20737       109.3178    
   7003.950       4998.001       14545.30       14545.30       2979.050    
   2553.997      0.0000000E+00  0.0000000E+00  0.0000000E+00  0.0000000E+00
   19.43888       19.43888       20.58405       20.58405       83.86076    
   107.9054    
   1.081000       130.0964       132.6451       115.7483      -14.34818    
  -16.89685       73.02641       94.60773       1.001586      0.9994888    
  0.9993977       1.001414       1.001494     -1.9062430E-04  4.4100732E-04
  6.1281509E-04  1.3307050E-03  1.4800868E-03   130.0964       132.6451    
  -19.81890      -22.36757       67.55568       89.13700       110.2775    
   7016.272       4999.573       14534.23       14534.23       2985.676    
   2553.143      0.0000000E+00  0.0000000E+00  0.0000000E+00  0.0000000E+00
   19.43397       19.43397       20.56972       20.56972       84.56618    
   108.9559    
   1.105000       131.1711       133.7687       116.7227      -14.44834    
  -17.04592       73.94301       95.56452       1.001581      0.9994967    
  0.9994038       1.001442       1.001521     -2.1797903E-04  3.2875873E-04
  2.5555052E-04  1.1520629E-03  1.0842290E-03   131.1711       133.7687    
  -19.92988      -22.52746       68.46146       90.08298       111.2412    
   7029.851       5001.720       14524.73       14524.73       2992.614    
   2554.111      0.0000000E+00  0.0000000E+00  0.0000000E+00  0.0000000E+00
   19.39105       19.39105       20.52267       20.52267       85.26995    
   110.0129    
   1.129000       132.2180       134.8592       117.6792      -14.53884    
  -17.18009       74.87000       96.53147       1.001576      0.9995275    
  0.9994393       1.001482       1.001560     -1.8274195E-04  1.2818326E-03
  1.4784773E-03  1.6878401E-03  1.6471348E-03   132.2180       134.8592    
  -20.02474      -22.66599       69.38409       91.04558       112.1933    
   7037.294       5001.948       14515.27       14515.27       2996.678    
   2551.753      0.0000000E+00  0.0000000E+00  0.0000000E+00  0.0000000E+00
   19.35818       19.35818       20.49788       20.49788       85.98832    
   111.0703    
   1.153000       133.2610       135.9443       118.6408      -14.62025    
  -17.30352       75.81889       97.52152       1.001576      0.9995473    
  0.9994630       1.001520       1.001599     -1.1384228E-05  8.2586019E-04
  9.8709262E-04  1.5722953E-03  1.6057444E-03   133.2610       135.9443    
  -20.11171      -22.79499       70.32742       92.03006       113.1493    
   7043.134       5001.157       14504.03       14504.03       2999.900    
   2550.883      0.0000000E+00  0.0000000E+00  0.0000000E+00  0.0000000E+00
   19.33537       19.33537       20.48450       20.48450       86.71381    
   112.1418    
   1.177000       134.2947       137.0189       119.6067      -14.68799    
  -17.41219       76.77345       98.52087       1.001578      0.9995679    
  0.9994866       1.001540       1.001623      7.0549213E-05  8.6067448E-04
  9.8240736E-04  8.4943470E-04  1.0239481E-03   134.2947       137.0189    
  -20.18369      -22.90789       71.27775       93.02518       114.1110    
   7041.571       5000.230       14492.13       14492.13       3004.979    
   2550.091      0.0000000E+00  0.0000000E+00  0.0000000E+00  0.0000000E+00
   19.31044       19.31044       20.45642       20.45642       87.43309    
   113.2089    
   1.201000       135.3039       138.0632       120.5645      -14.73937    
  -17.49874       77.72350       99.51559       1.001573      0.9995975    
  0.9995236       1.001548       1.001632     -1.9790769E-04  1.2336178E-03
  1.5410624E-03  3.1349284E-04  3.8682221E-04   135.3039       138.0632    
  -20.23546      -22.99483       72.22741       94.01950       115.0684    
   7038.866       5000.146       14485.52       14485.52       3011.510    
   2548.253      0.0000000E+00  0.0000000E+00  0.0000000E+00  0.0000000E+00
   19.30258       19.30258       20.42444       20.42444       88.13734    
   114.2550    
   1.225000       136.3218       139.1188       121.5317      -14.79006    
  -17.58711       78.70104       100.5317       1.001588      0.9996187    
  0.9995455       1.001587       1.001666      6.1317207E-04  8.8223675E-04
  9.1221026E-04  1.6392128E-03  1.4038418E-03   136.3218       139.1188    
  -20.28482      -23.08186       73.20630       95.03690       116.0369    
   7038.324       4997.005       14471.82       14471.82       3015.056    
   2546.070      0.0000000E+00  0.0000000E+00  0.0000000E+00  0.0000000E+00
   19.27703       19.27703       20.39650       20.39650       88.85613    
   115.3217    
   1.249000       137.3347       140.1635       122.4987      -14.83607    
  -17.66479       79.70113       101.5739       1.001600      0.9996393    
  0.9995727       1.001635       1.001715      5.2007195E-04  8.5831399E-04
  1.1350738E-03  1.9849946E-03  2.0391282E-03   137.3347       140.1635    
  -20.32963      -23.15835       74.20757       96.08038       117.0051    
   7033.470       4991.643       14457.89       14457.89       3014.326    
   2543.724      0.0000000E+00  0.0000000E+00  0.0000000E+00  0.0000000E+00
   19.24494       19.24494       20.38269       20.38269       89.59253    
   116.4100    
   1.273000       138.3414       141.1969       123.4693      -14.87211    
  -17.72763       80.71535       102.6290       1.001612      0.9996619    
  0.9996035       1.001674       1.001753      5.1217631E-04  9.4145146E-04
  1.2809075E-03  1.6361023E-03  1.6000755E-03   138.3414       141.1969    
  -20.36409      -23.21961       75.22337       97.13699       117.9773    
   7028.531       4986.351       14444.39       14444.39       3012.726    
   2541.857      0.0000000E+00  0.0000000E+00  0.0000000E+00  0.0000000E+00
   19.22467       19.22467       20.36002       20.36002       90.32916    
   117.5011    
   1.297000       139.3441       142.2166       124.4455      -14.89861    
  -17.77107       81.74955       103.7150       1.001625      0.9996836    
  0.9996392       1.001714       1.001805      5.3303776E-04  9.0233056E-04
  1.4888553E-03  1.6762845E-03  2.1446461E-03   139.3441       142.2166    
  -20.38918      -23.26164       76.25899       98.22449       118.9550    
   7020.927       4979.017       14430.16       14430.16       3009.702    
   2540.195      0.0000000E+00  0.0000000E+00  0.0000000E+00  0.0000000E+00
   19.21259       19.21259       20.32739       20.32739       91.08221    
   118.6137    
   1.321000       140.3608       143.2526       125.4416      -14.91925    
  -17.81104       82.80023       104.8166       1.001654      0.9997020    
  0.9996615       1.001752       1.001847      1.2129796E-03  7.6888653E-04
  9.3102461E-04  1.5858993E-03  1.7538873E-03   140.3608       143.2526    
  -20.40851      -23.30030       77.31097       99.32732       119.9523    
   7013.833       4971.143       14408.09       14408.09       3005.624    
   2539.176      0.0000000E+00  0.0000000E+00  0.0000000E+00  0.0000000E+00
   19.18921       19.18921       20.30246       20.30246       91.83624    
   119.7358    
   1.345000       141.3768       144.2817       126.4425      -14.93429    
  -17.83915       83.86636       105.9334       1.001677      0.9997209    
  0.9996888       1.001791       1.001887      9.6012291E-04  7.8790454E-04
  1.1359382E-03  1.5912601E-03  1.6604408E-03   141.3768       144.2817    
  -20.42213      -23.32698       78.37852       100.4456       120.9547    
   7005.301       4963.033       14389.84       14389.84       3000.726    
   2538.404      0.0000000E+00  0.0000000E+00  0.0000000E+00  0.0000000E+00
   19.15767       19.15767       20.28827       20.28827       92.59231    
   120.8677    
   1.369000       142.3970       145.3065       127.4492      -14.94789    
  -17.85733       84.94859       107.0675       1.001702      0.9997396    
  0.9997202       1.001833       1.001932      1.0415993E-03  7.7882787E-04
  1.3087150E-03  1.7866489E-03  1.8680478E-03   142.3970       145.3065    
  -20.43542      -23.34487       79.46105       101.5799       121.9616    
   6993.942       4952.998       14371.38       14371.38       2994.463    
   2537.554      0.0000000E+00  0.0000000E+00  0.0000000E+00  0.0000000E+00
   19.14379       19.14379       20.26388       20.26388       93.35532    
   122.0153    
   1.393000       143.4413       146.3485       128.4824      -14.95886    
  -17.86611       86.05560       108.2397       1.001737      0.9997458    
  0.9997393       1.001874       1.001987      1.4311133E-03  2.5822138E-04
  7.9641101E-04  1.6873409E-03  2.3133464E-03   143.4413       146.3485    
  -20.45298      -23.36023       80.56148       102.7456       122.9883    
   6964.642       4939.856       14347.69       14347.69       2987.246    
   2538.270      0.0000000E+00  0.0000000E+00  0.0000000E+00  0.0000000E+00
   19.12628       19.12628       20.24591       20.24591       94.13242    
   123.1986    
   1.417000       144.5009       147.4002       129.5320      -14.96887    
  -17.86819       87.20088       109.4493       1.001776      0.9997557    
  0.9997611       1.001939       1.002058      1.6188259E-03  4.1217959E-04
  9.0845308E-04  2.6974296E-03  2.9404836E-03   144.5009       147.4002    
  -20.47108      -23.37039       81.69867       103.9471       124.0298    
   6935.444       4924.908       14321.89       14321.89       2976.122    
   2539.002      0.0000000E+00  0.0000000E+00  0.0000000E+00  0.0000000E+00
   19.10576       19.10576       20.23751       20.23751       94.93253    
   124.4182    
   1.441000       145.5727       148.4577       130.5954      -14.97733    
  -17.86234       88.37932       110.6908       1.001816      0.9997703    
  0.9997878       1.002011       1.002132      1.6919606E-03  6.0732343E-04
  1.1124116E-03  3.0320629E-03  3.0879017E-03   145.5727       148.4577    
  -20.48850      -23.37350       82.86815       105.1796       125.0842    
   6907.789       4908.818       14294.84       14294.84       2961.159    
   2540.432      0.0000000E+00  0.0000000E+00  0.0000000E+00  0.0000000E+00
   19.09728       19.09728       20.23090       20.23090       95.75156    
   125.6681    
   1.441000       145.0709       148.0589       130.0011      -15.06979    
  -18.05781       87.88642       110.0655       1.001816      0.9997703    
  0.9997878       1.002011       1.002132      1.6919606E-03  6.0732343E-04
  1.1124116E-03  3.0320629E-03  3.0879017E-03   145.0709       148.0589    
  -20.32995      -23.31798       82.62625       104.8054       124.7409    
   7009.812       4981.403       14354.54       14354.54       2965.001    
   2485.748      0.0000000E+00  0.0000000E+00  0.0000000E+00  0.0000000E+00
   19.10997       19.10997       20.28100       20.28100       95.68357    
   125.1353    
   1.445200       145.7899       148.6665       130.8104      -14.97952    
  -17.85612       88.71754       111.2513       1.001793      0.9997801    
  0.9998054       1.002092       1.002448      5.5449894E-03 -2.2117915E-03
 -7.9847389E-04  2.1487514E-02  3.8030766E-02   145.7899       148.6665    
  -20.49913      -23.37573       83.19794       105.7317       125.2908    
   6887.212       4900.139       14277.60       14277.60       2932.278    
   2541.540      0.0000000E+00  0.0000000E+00  0.0000000E+00  0.0000000E+00
   19.09383       19.09383       20.23216       20.23216       96.22454    
   126.2308    
   1.450000       146.0102       148.8818       131.0282      -14.98198    
  -17.85360       88.97952       111.5397       1.001812      0.9997769    
  0.9998069       1.002138       1.002472      3.7407984E-03 -5.0820992E-04
  4.0674736E-04  6.9638477E-03 -3.9647601E-04   146.0102       148.8818    
  -20.50397      -23.37559       83.45753       106.0177       125.5062    
   6880.742       4896.350       14270.70       14270.70       2926.230    
   2541.805      0.0000000E+00  0.0000000E+00  0.0000000E+00  0.0000000E+00
   19.09343       19.09343       20.23178       20.23178       96.42598    
   126.5217    
   1.456400       146.3024       149.1674       131.3173      -14.98500    
  -17.85010       89.31544       111.8876       1.001832      0.9997770    
  0.9998114       1.002161       1.002432      3.0398814E-03  6.2095314E-05
  7.1290246E-04  3.0883593E-03 -6.9526718E-03   146.3024       149.1674    
  -20.50990      -23.37499       83.79055       106.3627       125.7925    
   6873.090       4891.627       14262.81       14262.81       2921.108    
   2542.169      0.0000000E+00  0.0000000E+00  0.0000000E+00  0.0000000E+00
   19.09337       19.09337       20.23205       20.23205       96.65763    
   126.8726    
   1.462800       146.5950       149.4533       131.6069      -14.98810    
  -17.84643       89.65038       112.2290       1.001850      0.9997784    
  0.9998167       1.002178       1.002391      2.6189750E-03  2.8679497E-04
  8.6154166E-04  2.6365046E-03 -5.9140176E-03   146.5950       149.4533    
  -20.51592      -23.37426       84.12254       106.7012       126.0790    
   6865.526       4887.010       14255.45       14255.45       2916.658    
   2542.584      0.0000000E+00  0.0000000E+00  0.0000000E+00  0.0000000E+00
   19.09382       19.09382       20.23399       20.23399       96.88203    
   127.2171    
   1.469200       146.8886       149.7400       131.8975      -14.99115    
  -17.84246       89.98348       112.5642       1.001866      0.9997817    
  0.9998230       1.002189       1.002354      2.5299899E-03  5.1243755E-04
  9.8907517E-04  1.7159439E-03 -5.7588075E-03   146.8886       149.7400    
  -20.52194      -23.37326       84.45269       107.0334       126.3667    
   6857.789       4882.361       14248.08       14248.08       2913.036    
   2542.998      0.0000000E+00  0.0000000E+00  0.0000000E+00  0.0000000E+00
   19.09433       19.09433       20.23511       20.23511       97.09935    
   127.5554    
   1.475600       147.1839       150.0276       132.1897      -14.99422    
  -17.83796       90.31941       112.9046       1.001882      0.9997849    
  0.9998294       1.002203       1.002336      2.4533619E-03  4.9577310E-04
  1.0096185E-03  2.1844765E-03 -2.8402263E-03   147.1839       150.0276    
  -20.52824      -23.37198       84.78538       107.3706       126.6557    
   6849.354       4877.467       14240.61       14240.61       2909.236    
   2543.440      0.0000000E+00  0.0000000E+00  0.0000000E+00  0.0000000E+00
   19.09503       19.09503       20.23739       20.23739       97.32049    
   127.8988    
   1.482000       147.4817       150.3174       132.4843      -14.99734    
  -17.83310       90.65937       113.2504       1.001898      0.9997877    
  0.9998354       1.002221       1.002332      2.6091640E-03  4.3416340E-04
  9.3522610E-04  2.8343971E-03 -6.1454577E-04   147.4817       150.3174    
  -20.53492      -23.37068       85.12179       107.7128       126.9468    
   6840.204       4872.283       14232.47       14232.47       2905.092    
   2543.933      0.0000000E+00  0.0000000E+00  0.0000000E+00  0.0000000E+00
   19.09617       19.09617       20.23892       20.23892       97.54548    
   128.2477    
   1.488400       147.7819       150.6094       132.7813      -15.00060    
  -17.82803       91.00359       113.6019       1.001916      0.9997901    
  0.9998408       1.002243       1.002340      2.6914531E-03  3.7007511E-04
  8.4441656E-04  3.3891813E-03  1.1950737E-03   147.7819       150.6094    
  -20.54206      -23.36949       85.46213       108.0604       127.2399    
   6830.341       4866.815       14223.91       14223.91       2900.590    
   2544.461      0.0000000E+00  0.0000000E+00  0.0000000E+00  0.0000000E+00
   19.09678       19.09678       20.24026       20.24026       97.77473    
   128.6025    
   1.501200       148.3887       151.1989       133.3811      -15.00758    
  -17.81782       91.69679       114.3044       1.001949      0.9997969    
  0.9998522       1.002281       1.002353      2.6432876E-03  5.3795945E-04
  8.8615081E-04  2.9581839E-03  1.0326079E-03   148.3887       151.1989    
  -20.55734      -23.36758       86.14703       108.7546       127.8313    
   6809.317       4855.357       14206.04       14206.04       2892.200    
   2545.635      0.0000000E+00  0.0000000E+00  0.0000000E+00  0.0000000E+00
   19.09755       19.09755       20.24171       20.24171       98.22874    
   129.3119    
   1.514000       149.0041       151.7955       133.9886      -15.01548    
  -17.80683       92.40800       115.0309       1.001984      0.9998027    
  0.9998631       1.002332       1.002398      2.6929574E-03  4.5204046E-04
  8.5219834E-04  4.0148352E-03  3.5097825E-03   149.0041       151.7955    
  -20.57446      -23.36580       86.84904       109.4719       128.4296    
   6786.079       4843.009       14187.64       14187.64       2882.422    
   2546.849      0.0000000E+00  0.0000000E+00  0.0000000E+00  0.0000000E+00
   19.09878       19.09878       20.24653       20.24653       98.70143    
   130.0464    
   1.526800       149.6310       152.4014       134.6062      -15.02471    
  -17.79511       93.14227       115.7884       1.002021      0.9998065    
  0.9998728       1.002398       1.002471      2.9166599E-03  2.9103644E-04
  7.6074770E-04  5.1502781E-03  5.7109273E-03   149.6310       152.4014    
  -20.59424      -23.36464       87.57275       110.2189       129.0367    
   6758.825       4829.347       14167.32       14167.32       2870.434    
   2548.219      0.0000000E+00  0.0000000E+00  0.0000000E+00  0.0000000E+00
   19.10195       19.10195       20.25235       20.25235       99.19886    
   130.8131    
   1.539600       150.2671       153.0147       135.2313      -15.03582    
  -17.78344       93.89812       116.5716       1.002060      0.9998116    
  0.9998842       1.002475       1.002558      3.0311106E-03  4.0479196E-04
  8.9413748E-04  5.9563089E-03  6.7548864E-03   150.2671       153.0147    
  -20.61629      -23.36391       88.31764       110.9911       129.6508    
   6729.403       4814.896       14145.77       14145.77       2856.515    
   2549.604      0.0000000E+00  0.0000000E+00  0.0000000E+00  0.0000000E+00
   19.10542       19.10542       20.25988       20.25988       99.71810    
   131.6074    
   1.565200       151.7364       154.4008       136.6642      -15.07217    
  -17.73658       95.76432       118.5238       1.002189      0.9997112    
  0.9998275       1.002811       1.002935      5.0409986E-03 -3.9235060E-03
 -2.2160842E-03  1.3131028E-02  1.4723111E-02   151.7364       154.4008    
  -20.72686      -23.39128       90.10963       112.8692       131.0095    
   6557.656       4751.854       14063.72       14063.72       2788.100    
   2561.189      0.0000000E+00  0.0000000E+00  0.0000000E+00  0.0000000E+00
   19.10523       19.10523       20.27351       20.27351       101.0198    
   133.5960    
   1.590800       153.1560       155.7508       138.0421      -15.11389    
  -17.70870       97.57763       120.3894       1.002277      0.9997484    
  0.9998701       1.002991       1.003099      3.4182861E-03  1.4543443E-03
  1.6638775E-03  7.0496229E-03  6.4095808E-03   153.1560       155.7508    
  -20.80639      -23.40120       91.88512       114.6969       132.3496    
   6472.451       4710.919       14003.92       14003.92       2741.761    
   2566.491      0.0000000E+00  0.0000000E+00  0.0000000E+00  0.0000000E+00
   19.12807       19.12807       20.30278       20.30278       102.2838    
   135.5033    
   1.616400       154.6526       157.1695       139.4870      -15.16559    
  -17.68248       99.52116       122.3949       1.002386      0.9997578    
  0.9998903       1.003206       1.003316      4.2783893E-03  3.6692061E-04
  7.8823930E-04  8.3812904E-03  8.4830141E-03   154.6526       157.1695    
  -20.90529      -23.42218       93.78146       116.6552       133.7473    
   6373.052       4664.276       13938.50       13938.50       2694.344    
   2572.315      0.0000000E+00  0.0000000E+00  0.0000000E+00  0.0000000E+00
   19.13779       19.13779       20.32813       20.32813       103.6516    
   137.5605    
   1.642000       156.3828       158.7669       141.1948      -15.18793    
  -17.57209       101.8349       124.8572       1.002540      0.9996309    
  0.9998238       1.003515       1.003714      6.0223355E-03 -4.9569421E-03
 -2.5980980E-03  1.2076125E-02  1.5556365E-02   156.3828       158.7669    
  -21.04785      -23.43200       95.97499       118.9973       135.3349    
   6189.182       4585.308       13841.16       13841.16       2629.638    
   2589.548      0.0000000E+00  0.0000000E+00  0.0000000E+00  0.0000000E+00
   19.16772       19.16772       20.36369       20.36369       105.2756    
   140.0451    
   1.667600       158.1153       160.3797       142.8587      -15.25662    
  -17.52103       104.2759       127.3811       1.002684      0.9996488    
  0.9998550       1.003900       1.004072      5.6091598E-03  6.9781655E-04
  1.2176143E-03  1.5053706E-02  1.3976882E-02   158.1153       160.3797    
  -21.18587      -23.45028       98.34666       121.4519       136.9294    
   6038.466       4515.100       13748.43       13748.43       2553.578    
   2596.033      0.0000000E+00  0.0000000E+00  0.0000000E+00  0.0000000E+00
   19.19893       19.19893       20.41817       20.41817       107.0340    
   142.6378    
   1.693200       160.0280       162.1204       144.6713      -15.35664    
  -17.44906       107.1377       130.2717       1.002884      0.9996113    
  0.9998763       1.004483       1.004588      7.8313602E-03 -1.4642914E-03
  8.3514181E-04  2.2764064E-02  2.0143962E-02   160.0280       162.1204    
  -21.39230      -23.48472       101.1021       124.2361       138.6357    
   5789.696       4400.056       13622.99       13622.99       2439.150    
   2601.659      0.0000000E+00  0.0000000E+00  0.0000000E+00  0.0000000E+00
   19.23049       19.23049       20.49290       20.49290       109.0919    
   145.6284    
   1.718800       162.0432       163.9546       146.6046      -15.43859    
  -17.34999       110.2414       133.4527       1.003083      0.9996014    
  0.9999014       1.004972       1.005097      7.7577671E-03 -3.8753526E-04
  9.7960990E-04  1.9111523E-02  1.9887239E-02   162.0432       163.9546    
  -21.58660      -23.49800       104.0934       127.3046       140.4566    
   5556.742       4296.028       13478.57       13478.57       2329.584    
   2611.816      0.0000000E+00  0.0000000E+00  0.0000000E+00  0.0000000E+00
   19.27887       19.27887       20.54902       20.54902       111.3653    
   148.8912    
   1.744400       164.4328       166.0845       148.9764      -15.45633    
  -17.10801       114.1006       137.4413       1.003365      0.9994118    
  0.9998071       1.005704       1.005890      1.1015396E-02 -7.4036829E-03
 -3.6832152E-03  2.8567301E-02  3.0976197E-02   164.4328       166.0845    
  -21.82892      -23.48059       107.7280       131.0687       142.6039    
   5220.428       4119.095       13269.55       13269.55       2179.240    
   2635.858      0.0000000E+00  0.0000000E+00  0.0000000E+00  0.0000000E+00
   19.32621       19.32621       20.61519       20.61519       114.1273    
   152.8976    
   1.749500       164.9695       166.5611       149.4915      -15.47795    
  -17.06954       115.3569       139.1614       1.003446      0.9993027    
  0.9997311       1.006705       1.007756      1.1926754E-02  6.4684059E-03
  1.2657137E-02  8.3573602E-02  0.2003550       164.9695       166.5611    
  -21.90582      -23.49740       108.9290       132.7335       143.0637    
   5069.780       4076.388       13212.39       13212.39       2060.026    
   2640.580      0.0000000E+00  0.0000000E+00  0.0000000E+00  0.0000000E+00
   19.31853       19.31853       20.72936       20.72936       115.5751    
   154.6393    
   1.754600       165.4135       166.9551       149.9422      -15.47133    
  -17.01285       116.2218       140.2735       1.003481      0.9993751    
  0.9998057       1.006836       1.008139     -1.0189878E-02  6.8592444E-02
  5.0145898E-02 -5.5715624E-02 -3.7934184E-02   165.4135       166.9551    
  -21.92072      -23.46224       109.7724       133.8241       143.4928    
   5036.867       4054.570       13170.21       13170.21       2019.002    
   2642.042      0.0000000E+00  0.0000000E+00  0.0000000E+00  0.0000000E+00
   19.34671       19.34671       20.76672       20.76672       116.4631    
   155.7448    
   1.759700       165.7982       167.3081       150.3458      -15.45232    
  -16.96225       116.9080       141.0941       1.003481      0.9994997    
  0.9999011       1.006670       1.007954      7.4618845E-03 -1.0281315E-03
  3.4135487E-04 -4.9391650E-03 -1.5605851E-02   165.7982       167.3081    
  -21.90186      -23.41179       110.4585       134.6446       143.8963    
   5058.223       4050.733       13146.31       13146.31       2012.825    
   2642.671      0.0000000E+00  0.0000000E+00  0.0000000E+00  0.0000000E+00
   19.41009       19.41009       20.79518       20.79518       117.0869    
   156.5464    
   1.763700       166.1638       167.6354       150.7247      -15.43911    
  -16.91065       117.5340       141.8161       1.003513      0.9994895    
  0.9998979       1.006639       1.007898     -5.5863918E-03  5.4498374E-02
  4.9307667E-02 -0.2028504     -0.1271862       166.1638       167.6354    
  -21.91187      -23.38341       111.0612       135.3433       144.2519    
   5043.759       4035.376       13120.88       13120.88       2001.324    
   2645.825      0.0000000E+00  0.0000000E+00  0.0000000E+00  0.0000000E+00
   19.42798       19.42798       20.82387       20.82387       117.6066    
   157.2552    
   1.768200       166.5417       167.9761       151.1149      -15.42673    
  -16.86122       118.1384       142.4752       1.003539      0.9995379    
  0.9999416       1.006492       1.007608      1.0884779E-02 -8.6592594E-03
 -5.5623846E-03  1.2022915E-02 -3.4898423E-02   166.5417       167.9761    
  -21.90887      -23.34336       111.6563       135.9930       144.6328    
   5050.736       4024.850       13098.40       13098.40       2004.889    
   2646.499      0.0000000E+00  0.0000000E+00  0.0000000E+00  0.0000000E+00
   19.46580       19.46580       20.83940       20.83940       118.0693    
   157.9019    
   1.774200       167.1040       168.4809       151.6837      -15.42026    
  -16.79722       119.0974       143.4292       1.003603      0.9995227    
  0.9999354       1.006569       1.007397      6.5378533E-03  9.4021168E-03
  6.9283447E-03  3.6246411E-03 -4.7475204E-02   167.1040       168.4809    
  -21.93183      -23.30880       112.5858       136.9176       145.1721    
   5017.937       3999.742       13058.85       13058.85       1986.484    
   2648.977      0.0000000E+00  0.0000000E+00  0.0000000E+00  0.0000000E+00
   19.48870       19.48870       20.86204       20.86204       118.7294    
   158.8494    
   1.776100       166.0358       167.6398       150.5929      -15.44289    
  -17.04699       118.4355       142.0419       1.003604      0.9995769    
  0.9999735       1.006519       1.007255      2.2004040E-04  2.8500048E-02
  2.0054866E-02 -2.6306154E-02 -7.4497491E-02   166.0358       167.6398    
  -21.38718      -22.99128       112.4912       136.0976       144.6486    
   5253.929       4160.156       13169.25       13169.25       1952.729    
   2531.487      0.0000000E+00  0.0000000E+00  0.0000000E+00  0.0000000E+00
   19.62478       19.62478       20.93425       20.93425       118.4210    
   157.4848    
   1.777800       166.8064       168.5525       151.1187      -15.68777    
  -17.43383       119.5172       142.3773       1.003512      0.9996844    
   1.000055       1.006312       1.006976      1.9607158E-02 -2.8493904E-02
 -2.6899450E-02  6.2618002E-02  1.4946037E-02   166.8064       168.5525    
  -21.81107      -23.55713       113.3939       136.2541       144.9954    
   4778.564       4164.502       13179.95       13179.95       1874.440    
   2594.606      0.0000000E+00  0.0000000E+00  0.0000000E+00  0.0000000E+00
   19.83090       19.83090       20.96937       20.96937       118.3091    
   158.0651    
   1.782200       168.5571       170.0809       152.7782      -15.77893    
  -17.30271       121.3733       144.0527       1.003451      0.9997213    
   1.000013       1.005681       1.005647     -7.2250795E-03  2.5514418E-02
 -7.5385659E-03 -0.1464390     -0.2417566       168.5571       170.0809    
  -22.49098      -24.01475       114.6612       137.3407       146.0661    
   4451.332       3998.981       13064.23       13064.23       1853.215    
   2715.176      0.0000000E+00  0.0000000E+00  0.0000000E+00  0.0000000E+00
   19.66795       19.66795       20.93316       20.93316       118.6033    
   159.8316    
   1.786200       168.9241       170.4540       153.1248      -15.79938    
  -17.32926       121.8644       144.4816       1.003499      0.9996598    
  0.9998915       1.005644       1.005493      4.1419994E-02 -8.3144300E-02
 -6.8444416E-02  0.1043958      0.1123744       168.9241       170.4540    
  -22.50854      -24.03841       115.1553       137.7725       146.4156    
   4454.046       3995.701       13049.12       13049.12       1872.913    
   2713.985      0.0000000E+00  0.0000000E+00  0.0000000E+00  0.0000000E+00
   19.64113       19.64113       20.91872       20.91872       118.8531    
   160.2810    
   1.790200       169.3733       170.8776       153.5894      -15.78391    
  -17.28820       122.5924       145.1844       1.003609      0.9995378    
  0.9997793       1.005910       1.005733      1.6946455E-02  4.1083326E-03
 -3.7816502E-03  3.9364487E-02  1.6126104E-02   169.3733       170.8776    
  -22.53395      -24.03823       115.8424       138.4343       146.8394    
   4408.858       3960.666       13004.19       13004.19       1860.290    
   2716.346      0.0000000E+00  0.0000000E+00  0.0000000E+00  0.0000000E+00
   19.60639       19.60639       20.91417       20.91417       119.2951    
   160.9683    
   1.795000       169.9629       171.4170       154.1879      -15.77495    
  -17.22903       123.5571       146.1202       1.003738      0.9993340    
  0.9996263       1.006291       1.006095      3.2176789E-02 -6.4864412E-02
 -4.6076611E-02  9.9293843E-02  0.1052020       169.9629       171.4170    
  -22.59016      -24.04425       116.7419       139.3050       147.3727    
   4328.227       3913.677       12943.13       12943.13       1834.628    
   2722.330      0.0000000E+00  0.0000000E+00  0.0000000E+00  0.0000000E+00
   19.58091       19.58091       20.92181       20.92181       119.8850    
   161.8951    
   1.799800       170.4935       171.9131       154.7174      -15.77610    
  -17.19564       124.4182       147.0022       1.003788      0.9992679    
  0.9995607       1.006450       1.006336     -2.6835419E-02  7.9474851E-02
  4.3056447E-02 -0.1049365     -8.3001897E-02   170.4935       171.9131    
  -22.62518      -24.04473       117.5691       140.1531       147.8683    
   4308.557       3890.933       12901.85       12901.85       1825.385    
   2726.273      0.0000000E+00  0.0000000E+00  0.0000000E+00  0.0000000E+00
   19.58205       19.58205       20.91858       20.91858       120.4652    
   162.7783    
   1.804600       170.9427       172.3619       155.1776      -15.76514    
  -17.18428       125.0966       147.7223       1.003813      0.9993136    
  0.9995519       1.006382       1.006369      2.9435540E-02 -3.0878222E-02
 -2.1817286E-02  0.1133482      9.7707190E-02   170.9427       172.3619    
  -22.61596      -24.03510       118.2457       140.8714       148.3268    
   4383.019       3887.542       12877.22       12877.22       1847.017    
   2726.592      0.0000000E+00  0.0000000E+00  0.0000000E+00  0.0000000E+00
   19.58309       19.58309       20.90939       20.90939       120.9351    
   163.4874    
   1.809400       171.6186       172.9657       155.8671      -15.75153    
  -17.09864       126.2568       148.8846       1.003973      0.9990578    
  0.9993901       1.006945       1.006941      2.8747868E-02 -4.6735600E-02
 -2.9375326E-02  8.8502944E-02  0.1033042       171.6186       172.9657    
  -22.69650      -24.04361       119.3118       141.9397       148.9221    
   4254.473       3823.025       12800.31       12800.31       1798.851    
   2735.480      0.0000000E+00  0.0000000E+00  0.0000000E+00  0.0000000E+00
   19.55109       19.55109       20.91235       20.91235       121.6889    
   164.6362    
   1.814200       172.0291       173.3791       156.2483      -15.78077    
  -17.13077       126.9198       149.5248       1.003951      0.9992518    
  0.9995047       1.006866       1.006808     -1.7397406E-02  8.5377656E-02
  5.3975526E-02 -2.2051027E-02 -8.4207810E-02   172.0291       173.3791    
  -22.69155      -24.04154       120.0090       142.6140       149.3375    
   4329.090       3834.266       12789.01       12789.01       1815.044    
   2727.870      0.0000000E+00  0.0000000E+00  0.0000000E+00  0.0000000E+00
   19.56288       19.56288       20.91029       20.91029       122.1536    
   165.3056    
   1.819000       172.7500       174.0147       156.9724      -15.77766    
  -17.04233       128.1607       150.7268       1.004118      0.9989416    
  0.9993153       1.007466       1.007347      4.2195294E-02 -9.1472402E-02
 -5.6565963E-02  0.1532128      0.1539101       172.7500       174.0147    
  -22.79719      -24.06187       121.1412       143.7073       149.9529    
   4168.856       3765.159       12710.39       12710.39       1760.300    
   2738.116      0.0000000E+00  0.0000000E+00  0.0000000E+00  0.0000000E+00
   19.53897       19.53897       20.91721       20.91721       122.9230    
   166.5045    
   1.819000       171.5955       173.0340       155.9225      -15.67302    
  -17.11147       127.2465       149.5467       1.004118      0.9989416    
  0.9993153       1.007466       1.007347      4.2195294E-02 -9.1472402E-02
 -5.6565963E-02  0.1532128      0.1539101       171.5955       173.0340    
  -22.17791      -23.61636       120.7417       143.0418       149.4176    
   4336.876       3901.177       12777.82       12777.82       1742.336    
   2637.491      0.0000000E+00  0.0000000E+00  0.0000000E+00  0.0000000E+00
   19.70956       19.70956       20.95574       20.95574       122.7433    
   165.2197    
   1.823600       173.2528       174.5078       157.5004      -15.75236    
  -17.00738       129.1103       151.6339       1.003941      0.9994579    
  0.9996556       1.006773       1.006736     -3.5217416E-02  0.1487812    
  8.8787228E-02 -0.1343788     -0.2006821       173.2528       174.5078    
  -22.78423      -24.03925       122.0785       144.6020       150.4686    
   4148.271       3774.408       12683.47       12683.47       1745.282    
   2745.275      0.0000000E+00  0.0000000E+00  0.0000000E+00  0.0000000E+00
   19.60245       19.60245       20.91807       20.91807       123.5285    
   167.3863    
   1.827600       173.8211       175.0296       158.0749      -15.74617    
  -16.95469       130.0002       152.5061       1.004049      0.9991740    
  0.9994375       1.007035       1.006974      6.5246485E-02 -0.1643714    
 -0.1125534      0.2232122      0.2375410       173.8211       175.0296    
  -22.85053      -24.05905       122.8959       145.4017       150.9705    
   4035.087       3735.608       12637.21       12637.21       1734.937    
   2754.870      0.0000000E+00  0.0000000E+00  0.0000000E+00  0.0000000E+00
   19.57732       19.57732       20.90494       20.90494       124.0460    
   168.2523    
   1.831600       174.4774       175.6137       158.7688      -15.70853    
  -16.84488       131.1169       153.6456       1.004216      0.9988732    
  0.9992343       1.007527       1.007524      2.3705555E-02 -1.9254243E-02
 -1.5413594E-02  2.7941672E-02  5.9442669E-02   174.4774       175.6137    
  -22.92221      -24.05857       123.9032       146.4319       151.5552    
   3921.591       3671.039       12561.82       12561.82       1694.075    
   2768.019      0.0000000E+00  0.0000000E+00  0.0000000E+00  0.0000000E+00
   19.55556       19.55556       20.89942       20.89942       124.7513    
   169.3541    
   1.836400       174.9313       176.0755       159.1916      -15.73970    
  -16.88383       131.8505       154.3188       1.004222      0.9990497    
  0.9993282       1.007483       1.007364      3.9466660E-02 -8.7085202E-02
 -6.0303036E-02  0.1160336      0.1172727       174.9313       176.0755    
  -22.91828      -24.06241       124.6719       147.1402       152.0131    
   3991.171       3681.380       12550.66       12550.66       1714.419    
   2758.807      0.0000000E+00  0.0000000E+00  0.0000000E+00  0.0000000E+00
   19.55511       19.55511       20.89281       20.89281       125.2275    
   170.0585    
   1.841200       175.7848       176.8272       160.0944      -15.69031    
  -16.73277       133.3130       155.8045       1.004428      0.9986382    
  0.9990583       1.008124       1.008075      2.5903916E-02 -1.5284278E-02
 -8.2248505E-03  7.0457801E-02  7.4029274E-02   175.7848       176.8272    
  -23.02331      -24.06576       125.9800       148.4715       152.7615    
   3827.892       3594.511       12453.08       12453.08       1655.659    
   2777.307      0.0000000E+00  0.0000000E+00  0.0000000E+00  0.0000000E+00
   19.53182       19.53182       20.89191       20.89191       126.1396    
   171.4948    
   1.846000       176.1999       177.2486       160.4174      -15.78247    
  -16.83119       133.9896       156.3627       1.004410      0.9989711    
  0.9992985       1.008061       1.007785      2.8151315E-02 -1.1278106E-02
  9.9965781E-03  0.1073712      5.5434570E-02   176.1999       177.2486    
  -23.04395      -24.09266       126.7281       149.1013       153.1559    
   3891.318       3608.091       12447.17       12447.17       1671.688    
   2752.976      0.0000000E+00  0.0000000E+00  0.0000000E+00  0.0000000E+00
   19.48168       19.48168       20.89744       20.89744       126.6059    
   172.1452    
   1.849100       176.2103       177.2156       160.6910      -15.51928    
  -16.52456       135.9405       157.0611       1.004570      0.9985711    
  0.9990482       1.008555       1.008344      5.2299023E-02 -0.1334603    
 -8.5062325E-02  0.1657517      0.1937638       176.2103       177.2156    
  -22.65715      -23.66244       128.8026       149.9232       153.5532    
   3155.468       3675.022       12407.14       12407.14       1331.364    
   2741.198      0.0000000E+00  0.0000000E+00  0.0000000E+00  0.0000000E+00
   19.82123       19.82123       20.97721       20.97721       127.2734    
   172.5804    
   1.850400       176.3048       177.3384       160.8169      -15.48795    
  -16.52147       136.1610       157.2636       1.004435      0.9988567    
  0.9992623       1.008304       1.008034      1.5619573E-02  4.6207104E-02
  1.0030308E-02  0.1935159     -5.6803884E-04   176.3048       177.3384    
  -22.59758      -23.63111       129.0513       150.1540       153.7072    
   3169.648       3679.824       12396.39       12396.39       1353.948    
   2740.383      0.0000000E+00  0.0000000E+00  0.0000000E+00  0.0000000E+00
   19.83729       19.83729       20.95848       20.95848       127.4164    
   172.7516    
   1.855100       178.0147       178.8864       162.4720      -15.54267    
  -16.41435       138.1073       159.1407       1.004452      0.9991016    
  0.9993356       1.007722       1.007342      5.1831502E-02 -9.4709590E-02
 -7.9762049E-02  7.0261642E-02  0.1551422       178.0147       178.8864    
  -23.16682      -24.03850       130.4832       151.5165       154.8479    
   2945.082       3537.487       12297.58       12297.58       1372.465    
   2838.184      0.0000000E+00  0.0000000E+00  0.0000000E+00  0.0000000E+00
   19.65719       19.65719       20.90364       20.90364       127.9544    
   174.6833    
   1.859900       178.8913       179.6969       163.3981      -15.49323    
  -16.29877       139.5253       160.6555       1.004643      0.9986618    
  0.9989763       1.008217       1.008103      1.4096604E-02 -2.5950110E-02
 -3.0574968E-02  5.6965239E-02  6.8971999E-02   178.8913       179.6969    
  -23.24124      -24.04678       131.7773       152.9075       155.6501    
   2835.504       3462.023       12206.31       12206.31       1347.181    
   2853.619      0.0000000E+00  0.0000000E+00  0.0000000E+00  0.0000000E+00
   19.59372       19.59372       20.87630       20.87630       128.8778    
   176.1487    
   1.864700       179.5725       180.3638       164.1337      -15.43881    
  -16.23013       140.7243       161.8715       1.004740      0.9986205    
  0.9989027       1.008505       1.008453      4.3369509E-02 -6.8089798E-02
 -5.2891456E-02  0.1147753      0.1528455       179.5725       180.3638    
  -23.22395      -24.01526       132.9392       154.0863       156.3486    
   2823.451       3432.309       12147.00       12147.00       1341.740    
   2857.215      0.0000000E+00  0.0000000E+00  0.0000000E+00  0.0000000E+00
   19.56961       19.56961       20.84999       20.84999       129.6587    
   177.3103    
   1.869500       180.5599       181.2503       165.2222      -15.33770    
  -16.02804       142.4496       163.6616       1.004970      0.9981524    
  0.9985765       1.009224       1.009309      3.1317476E-02 -6.0446661E-02
 -4.2662937E-02  0.1137751      0.1234065       180.5599       181.2503    
  -23.30352      -23.99387       134.4837       155.6958       157.2564    
   2663.969       3327.074       12029.72       12029.72       1281.125    
   2878.200      0.0000000E+00  0.0000000E+00  0.0000000E+00  0.0000000E+00
   19.51850       19.51850       20.83908       20.83908       130.7381    
   178.9993    
   1.874300       181.1934       181.8773       165.8454      -15.34798    
  -16.03195       143.5547       164.7427       1.004976      0.9983061    
  0.9986548       1.009311       1.009331      9.4417874E-03  3.2408647E-02
  1.8742861E-02  3.3523012E-02  2.5093427E-02   181.1934       181.8773    
  -23.30009      -23.98405       135.6026       156.7906       157.8933    
   2707.232       3326.015       11999.21       11999.21       1286.331    
   2871.268      0.0000000E+00  0.0000000E+00  0.0000000E+00  0.0000000E+00
   19.49924       19.49924       20.82792       20.82792       131.4815    
   180.0907    
   1.879100       182.1806       182.7611       166.9471      -15.23352    
  -15.81397       145.3157       166.5427       1.005186      0.9979228    
  0.9984072       1.009941       1.010034      3.7462033E-02 -8.0503419E-02
 -5.2294470E-02  0.1203938      0.1280099       182.1806       182.7611    
  -23.36519      -23.94564       137.1840       158.4110       158.8154    
   2553.723       3223.566       11883.18       11883.18       1226.767    
   2892.506      0.0000000E+00  0.0000000E+00  0.0000000E+00  0.0000000E+00
   19.46780       19.46780       20.82379       20.82379       132.5660    
   181.7762    
   1.883900       182.8623       183.4214       167.6181      -15.24421    
  -15.80328       146.5079       167.6915       1.005192      0.9980752    
  0.9985008       1.010001       1.009988      1.4720366E-03  4.3075114E-02
  2.7253948E-02  4.6894895E-03 -1.6665330E-02   182.8623       183.4214    
  -23.37463      -23.93369       138.3775       159.5610       159.4877    
   2590.026       3218.113       11849.32       11849.32       1227.807    
   2886.599      0.0000000E+00  0.0000000E+00  0.0000000E+00  0.0000000E+00
   19.46613       19.46613       20.82132       20.82132       133.3467    
   182.9357    
   1.888700       183.8759       184.3285       168.7655      -15.11041    
  -15.56299       148.3335       169.5453       1.005405      0.9977187    
  0.9982742       1.010581       1.010630      6.1906718E-02 -0.1394242    
 -8.9077726E-02  0.1753384      0.1983923       183.8759       184.3285    
  -23.42856      -23.88114       140.0153       161.2271       160.4474    
   2434.089       3113.293       11730.41       11730.41       1169.146    
   2909.022      0.0000000E+00  0.0000000E+00  0.0000000E+00  0.0000000E+00
   19.45710       19.45710       20.81734       20.81734       134.4554    
   184.6557    
   1.893500       184.7614       185.1407       169.6727      -15.08876    
  -15.46800       149.8624       171.0398       1.005477      0.9976338    
  0.9982151       1.010813       1.010779     -3.0959323E-03  4.0507086E-02
  2.4920249E-02 -7.5669447E-03 -3.9159194E-02   184.7614       185.1407    
  -23.49261      -23.87185       141.4585       162.6359       161.2688    
   2397.948       3068.922       11665.96       11665.96       1144.699    
   2914.875      0.0000000E+00  0.0000000E+00  0.0000000E+00  0.0000000E+00
   19.44176       19.44176       20.82030       20.82030       135.3978    
   186.1286    
   1.894700       183.7892       184.3777       168.8764      -14.91280    
  -15.50135       149.0894       170.1873       1.005474      0.9977022    
  0.9982581       1.010802       1.010750     -2.0090095E-03  5.7053030E-02
  3.5795793E-02 -9.2615997E-03 -2.4278462E-02   183.7892       184.3777    
  -22.72020      -23.30874       141.2820       162.3799       161.0690    
   2689.465       2905.227       11676.78       11676.78       1151.085    
   2821.513      0.0000000E+00  0.0000000E+00  0.0000000E+00  0.0000000E+00
   19.67771       19.67771       20.92778       20.92778       135.4732    
   185.1001    
   1.898900       185.8917       186.1968       171.0079      -14.88376    
  -15.18885       151.9565       173.1091       1.005471      0.9977443    
  0.9983416       1.010776       1.010806      1.6825052E-02  2.1648291E-02
  1.2978566E-02  2.4037963E-02 -2.7049393E-03   185.8917       186.1968    
  -23.39550      -23.70059       143.4447       164.5973       162.4962    
   2337.614       2712.302       11520.15       11520.15       1072.367    
   2941.251      0.0000000E+00  0.0000000E+00  0.0000000E+00  0.0000000E+00
   19.52035       19.52035       20.91819       20.91819       136.6790    
   187.9928    
   1.902900       186.6265       186.8736       171.7607      -14.86573    
  -15.11286       153.2123       174.3101       1.005544      0.9976678    
  0.9982812       1.010945       1.010858      3.8061604E-02 -8.5402809E-02
 -5.7610959E-02  9.6949734E-02  8.4329039E-02   186.6265       186.8736    
  -23.42854      -23.67566       144.6495       165.7473       163.1979    
   2323.232       2685.202       11467.78       11467.78       1062.982    
   2943.875      0.0000000E+00  0.0000000E+00  0.0000000E+00  0.0000000E+00
   19.51754       19.51754       20.91232       20.91232       137.4263    
   189.1758    
   1.907700       187.8159       187.9197       173.1346      -14.68132    
  -14.78519       155.3454       176.4651       1.005801      0.9972008    
  0.9979669       1.011593       1.011570      3.1640947E-02 -4.1128402E-03
 -7.1315356E-03  7.4760601E-02  9.1689788E-02   187.8159       187.9197    
  -23.48139      -23.58525       146.5453       167.6650       164.3345    
   2123.237       2565.423       11323.85       11323.85       997.5303    
   2974.229      0.0000000E+00  0.0000000E+00  0.0000000E+00  0.0000000E+00
   19.52272       19.52272       20.89463       20.89463       138.6606    
   191.1464    
   1.912500       188.5722       188.6660       173.9169      -14.65530    
  -14.74911       156.7045       177.7816       1.005815      0.9974680    
  0.9981008       1.011565       1.011461      1.8886140E-02 -2.5218461E-02
 -2.4909955E-02  3.9213922E-02  1.7621752E-02   188.5722       188.6660    
  -23.43852      -23.53233       147.9212       168.9984       165.1337    
   2172.134       2563.433       11279.78       11279.78       1006.962    
   2965.895      0.0000000E+00  0.0000000E+00  0.0000000E+00  0.0000000E+00
   19.52410       19.52410       20.87588       20.87588       139.5468    
   192.4369    
   1.917300       189.6724       189.6638       175.1122      -14.56019    
  -14.55156       158.6032       179.6578       1.005978      0.9971685    
  0.9978728       1.011941       1.011815      3.0492006E-02 -2.7543811E-02
 -2.4732055E-02  6.5435193E-02  7.0203505E-02   189.6724       189.6638    
  -23.50214      -23.49352       149.6612       170.7158       166.1702    
   2075.344       2490.547       11173.65       11173.65       967.8671    
   2986.495      0.0000000E+00  0.0000000E+00  0.0000000E+00  0.0000000E+00
   19.49927       19.49927       20.86093       20.86093       140.6541    
   194.2180    
   1.918800       188.9097       189.1312       174.5646      -14.34508    
  -14.56661       158.2089       179.1117       1.006020      0.9971595    
  0.9978550       1.012029       1.011918      2.7859354E-02 -5.9768064E-03
 -1.1871812E-02  5.8975168E-02  6.8398379E-02   188.9097       189.1312    
  -22.64964      -22.87117       149.9043       170.8072       166.2600    
   2359.020       1988.928       11136.65       11136.65       930.2449    
   2910.713      0.0000000E+00  0.0000000E+00  0.0000000E+00  0.0000000E+00
   19.79926       19.79926       21.07800       21.07800       140.9417    
   193.4568    
   1.923200       191.1581       191.0717       176.8409      -14.31717    
  -14.23080       161.2627       182.1640       1.005992      0.9972251    
  0.9979573       1.011874       1.011796      1.5643910E-02  5.4866128E-02
  3.3353075E-02 -9.0229940E-03 -2.9736940E-02   191.1581       191.0717    
  -23.32097      -23.23460       152.2589       173.1602       167.8371    
   2003.217       1832.668       10971.72       10971.72       864.7657    
   3027.491      0.0000000E+00  0.0000000E+00  0.0000000E+00  0.0000000E+00
   19.63567       19.63567       21.06096       21.06096       142.1837    
   196.4811    
   1.926000       190.8848       191.1741       177.0425      -13.84227    
  -14.13163       161.6327       182.2113       1.006078      0.9971877    
  0.9979192       1.012058       1.012014      4.3618239E-02 -8.0916472E-02
 -5.8499191E-02  0.1335491      0.1822887       190.8848       191.1741    
  -22.04126      -22.33062       153.4337       174.0123       168.8435    
   2529.567      0.0000000E+00   10863.08       10863.08       781.5699    
   3016.633      0.0000000E+00  0.0000000E+00  0.0000000E+00  0.0000000E+00
   20.25240       20.25240       21.75333       21.75333       142.7858    
   196.0536    
   1.930400       193.0697       192.9583       179.2862      -13.78348    
  -13.67213       164.7265       185.2434       1.005962      0.9970348    
  0.9979821       1.011957       1.011845      5.2258190E-02 -8.3813652E-02
 -3.1766932E-02  9.7141393E-02  0.1217394       193.0697       192.9583    
  -22.59567      -22.48432       155.9143       176.4312       170.4740    
   2063.412      0.0000000E+00   10693.89       10693.89       719.8516    
   3125.304      0.0000000E+00  0.0000000E+00  0.0000000E+00  0.0000000E+00
   20.19749       20.19749       21.89900       21.89900       143.9724    
   199.0269    
   1.935200       194.1167       193.8974       180.5030      -13.61366    
  -13.39434       166.7109       187.4572       1.006204      0.9970344    
  0.9979979       1.012495       1.012872      5.0661802E-02 -1.9491840E-03
 -9.1865752E-03  0.1193561      0.2228365       194.1167       193.8974    
  -22.43209      -22.21276       157.8925       178.6388       171.6846    
   1917.618      0.0000000E+00   10507.45       10507.45       686.6999    
   3127.360      0.0000000E+00  0.0000000E+00  0.0000000E+00  0.0000000E+00
   20.29634       20.29634       21.74158       21.74158       145.4397    
   201.0709    
   1.939700       195.2166       194.8877       181.6549      -13.56174    
  -13.23285       168.5738       189.5043       1.006362      0.9967489    
  0.9977480       1.012867       1.013533      5.1400054E-02 -9.7602509E-02
 -8.1228204E-02  0.1413019      0.1603579       195.2166       194.8877    
  -22.43782      -22.10894       159.6977       180.6282       172.7788    
   1825.861      0.0000000E+00   10370.72       10370.72       666.7979    
   3129.709      0.0000000E+00  0.0000000E+00  0.0000000E+00  0.0000000E+00
   20.24753       20.24753       21.62305       21.62305       146.7606    
   203.0660    
   1.943700       196.1525       195.7823       182.7118      -13.44078    
  -13.07059       170.2991       191.3627       1.006548      0.9967238    
  0.9976283       1.013270       1.014091      4.1116975E-02  1.1407321E-02
 -2.2457881E-02  8.6147636E-02  0.1190627       196.1525       195.7823    
  -22.35067      -21.98046       161.3893       182.4528       173.8019    
   1714.368      0.0000000E+00   10225.74       10225.74       638.0096    
   3134.332      0.0000000E+00  0.0000000E+00  0.0000000E+00  0.0000000E+00
   20.21804       20.21804       21.47885       21.47885       147.9767    
   204.8035    
   1.948500       197.4543       197.0031       184.1382      -13.31616    
  -12.86493       172.6186       193.7554       1.006764      0.9963647    
  0.9972471       1.013880       1.014673      4.6526734E-02 -0.1100281    
 -0.1011915      0.1392628      0.1195438       197.4543       197.0031    
  -22.34996      -21.89874       163.5848       184.7216       175.1044    
   1529.730      0.0000000E+00   10064.32       10064.32       584.2217    
   3150.795      0.0000000E+00  0.0000000E+00  0.0000000E+00  0.0000000E+00
   20.11325       20.11325       21.36956       21.36956       149.4561    
   207.0715    
   1.953300       198.7619       198.2335       185.5796      -13.18233    
  -12.65393       174.9500       196.1363       1.006943      0.9960973    
  0.9969471       1.014359       1.015089      3.8235459E-02 -4.2902762E-03
 -3.0075161E-02  8.1188887E-02  7.8522339E-02   198.7619       198.2335    
  -22.33860      -21.81020       165.7937       186.9801       176.4233    
   1348.090      0.0000000E+00   9912.097       9912.097       537.9911    
   3168.860      0.0000000E+00  0.0000000E+00  0.0000000E+00  0.0000000E+00
   20.02704       20.02704       21.25747       21.25747       150.9110    
   209.3187    
   1.958100       200.0537       199.4723       187.0248      -13.02893    
  -12.44751       177.3091       198.5412       1.007121      0.9959313    
  0.9967155       1.014830       1.015497      4.3941710E-02 -7.9163633E-02
 -7.2038285E-02  0.1172581      8.9533113E-02   200.0537       199.4723    
  -22.28613      -21.70471       168.0518       189.2840       177.7676    
   1171.677      0.0000000E+00   9768.647       9768.647       490.8084    
   3187.035      0.0000000E+00  0.0000000E+00  0.0000000E+00  0.0000000E+00
   19.98940       19.98940       21.18796       21.18796       152.4011    
   211.5701    
   1.962900       201.6340       200.9089       188.7764      -12.85756    
  -12.13245       180.0761       201.2909       1.007334      0.9953090    
  0.9962159       1.015471       1.015967      3.7631169E-02 -7.0741653E-02
 -6.6656262E-02  0.1021482      6.7449197E-02   201.6340       200.9089    
  -22.34860      -21.62350       170.5851       191.7999       179.2854    
   903.6392      0.0000000E+00   9616.266       9616.266       416.3073    
   3226.787      0.0000000E+00  0.0000000E+00  0.0000000E+00  0.0000000E+00
   19.92050       19.92050       21.12231       21.12231       153.9633    
   214.1485    
   1.969300       203.5216       202.7108       190.8996      -12.62209    
  -11.81129       183.4695       204.6333       1.007568      0.9951037    
  0.9959404       1.015982       1.016244      4.0022098E-02 -6.8744749E-02
 -6.3056007E-02  8.6142004E-02  2.5974415E-02   203.5216       202.7108    
  -22.27425      -21.46344       173.8173       194.9812       181.2474    
   630.7168      0.0000000E+00   9435.973       9435.973       354.4886    
   3258.724      0.0000000E+00  0.0000000E+00  0.0000000E+00  0.0000000E+00
   19.84344       19.84344       21.06802       21.06802       155.9413    
   217.2554    
   1.975700       205.5457       204.6020       193.1662      -12.37953    
  -11.43587       187.0545       208.0848       1.007801      0.9947844    
  0.9956501       1.016502       1.016448      3.4541961E-02 -2.7907049E-02
 -3.0841436E-02  7.1411185E-02  2.6036413E-02   205.5457       204.6020    
  -22.23108      -21.28742       177.2029       198.2332       183.3146    
   336.1768      0.0000000E+00   9265.374       9265.374       291.7478    
   3291.269      0.0000000E+00  0.0000000E+00  0.0000000E+00  0.0000000E+00
   19.79748       19.79748       21.06030       21.06030       157.9146    
   220.4643    
   1.982100       207.6893       206.5604       195.5571      -12.13226    
  -11.00330       190.8106       211.6909       1.008029      0.9943600    
  0.9953531       1.017035       1.016714      3.7810139E-02 -8.9045733E-02
 -5.7325292E-02  8.9291841E-02  4.4891890E-02   207.6893       206.5604    
  -22.21769      -21.08874       180.7251       201.6055       185.4716    
   27.08056      0.0000000E+00   9094.685       9094.685       219.0229    
   3331.624      0.0000000E+00  0.0000000E+00  0.0000000E+00  0.0000000E+00
   19.72303       19.72303       21.09958       21.09958       159.9431    
   223.8232    
   1.988500       209.8755       208.5617       198.0358      -11.83975    
  -10.52592       194.7029       215.4828       1.008276      0.9940599    
  0.9951386       1.017597       1.017176      3.8283341E-02 -3.0219801E-02
 -2.4626616E-02  8.9592673E-02  8.5697562E-02   209.8755       208.5617    
  -22.13858      -20.82475       184.4041       205.1839       187.7369    
  -309.8206      0.0000000E+00   8924.396       8924.396       148.8128    
   3371.795      0.0000000E+00  0.0000000E+00  0.0000000E+00  0.0000000E+00
   19.74187       19.74187       21.18165       21.18165       162.1068    
   227.3225    
   1.994900       212.1674       210.6477       200.6295      -11.53789    
  -10.01816       198.7819       219.5125       1.008528      0.9936902    
  0.9948806       1.018218       1.017808      4.1253049E-02 -8.4582537E-02
 -5.3474829E-02  0.1025867      9.1320232E-02   212.1674       210.6477    
  -22.05488      -20.53515       188.2649       208.9955       190.1125    
  -671.2535      0.0000000E+00   8739.798       8739.798       60.76129    
   3418.135      0.0000000E+00  0.0000000E+00  0.0000000E+00  0.0000000E+00
   19.78408       19.78408       21.24635       21.24635       164.4259    
   231.0504    
   2.001300       214.5855       212.8319       203.3801      -11.20543    
  -9.451787       203.0607       223.6896       1.008809      0.9932955    
  0.9946105       1.018853       1.018363      4.3513209E-02 -4.0776663E-02
 -3.2756492E-02  0.1017333      9.7756058E-02   214.5855       212.8319    
  -21.96535      -20.21170       192.3007       212.9297       192.6202    
  -1048.559      0.0000000E+00   8547.469       8547.469      -26.59871    
   3468.247      0.0000000E+00  0.0000000E+00  0.0000000E+00  0.0000000E+00
   19.83064       19.83064       21.32853       21.32853       166.7822    
   234.8950    
   2.003400       214.5222       212.8910       203.5353      -10.98692    
  -9.355676       204.0462       225.0219       1.008915      0.9931199    
  0.9944738       1.019461       1.019580      4.9608842E-02 -9.7697020E-02
 -6.1196584E-02  0.1713507      0.2122628       214.5222       212.8910    
  -21.35870      -19.72746       193.6744       214.6501       193.1635    
  -1178.919      0.0000000E+00   8464.474       8464.474      -140.3860    
   3433.142      0.0000000E+00  0.0000000E+00  0.0000000E+00  0.0000000E+00
   20.12276       20.12276       21.35040       21.35040       168.2779    
   236.0088    
   2.004600       215.0109       213.3239       204.0857      -10.92525    
  -9.238186       204.9186       225.9221       1.008957      0.9930460    
  0.9944423       1.019751       1.020021      6.0516097E-02 -0.1093530    
 -7.2988234E-02  0.3951126       1.174640       215.0109       213.3239    
  -21.35389      -19.66683       194.4899       215.4935       193.6570    
  -1254.764      0.0000000E+00   8426.887       8426.887      -163.8411    
   3443.541      0.0000000E+00  0.0000000E+00  0.0000000E+00  0.0000000E+00
   20.12586       20.12586       21.37432       21.37432       168.8087    
   236.8474    
   2.008600       217.3795       215.3489       206.5317      -10.84782    
  -8.817178       208.0784       228.9365       1.009014      0.9929689    
  0.9944034       1.019603       1.019710      3.9674941E-02 -6.4495683E-02
 -6.2882416E-02  0.2380448      0.3607985       217.3795       215.3489    
  -21.85801      -19.82736       197.0683       217.9263       195.5215    
  -1454.722      0.0000000E+00   8352.412       8352.412      -133.7415    
   3521.388      0.0000000E+00  0.0000000E+00  0.0000000E+00  0.0000000E+00
   19.87482       19.87482       21.44980       21.44980       169.9351    
   239.7843    
   2.009900       217.0305       215.1481       206.3564      -10.67412    
  -8.791736       208.4025       229.3435       1.009084      0.9928836    
  0.9943463       1.019773       1.019862      6.2384039E-02 -8.9579970E-02
 -5.6573603E-02  0.2039868      0.2319430       217.0305       215.1481    
  -21.26018      -19.37779       197.8164       218.7574       195.7703    
  -1554.136      0.0000000E+00   8297.502       8297.502      -204.7448    
   3483.718      0.0000000E+00  0.0000000E+00  0.0000000E+00  0.0000000E+00
   20.20143       20.20143       21.45337       21.45337       170.7259    
   240.0176    
   2.010000       217.0730       215.1861       206.4048      -10.66821    
  -8.781297       208.4833       229.4315       1.009054      0.9929337    
  0.9943891       1.019689       1.019777     -0.3055830      0.5004206    
  0.4276508     -0.8373452     -0.8417669       217.0730       215.1861    
  -21.25884      -19.37193       197.8926       218.8409       195.8142    
  -1561.392      0.0000000E+00   8293.695       8293.695      -207.9626    
   3484.751      0.0000000E+00  0.0000000E+00  0.0000000E+00  0.0000000E+00
   20.20301       20.20301       21.45485       21.45485       170.7818    
   240.0998    
   2.011800       217.8289       215.8567       207.2598      -10.56909    
  -8.596954       209.7909       230.6826       1.009113      0.9928111    
  0.9943206       1.019762       1.019692      5.5610828E-02 -0.1017091    
 -6.4681612E-02  0.1297644      9.1951892E-02   217.8289       215.8567    
  -21.24389      -19.27176       199.1161       220.0078       196.5850    
  -1676.110      0.0000000E+00   8239.795       8239.795      -233.8530    
   3501.019      0.0000000E+00  0.0000000E+00  0.0000000E+00  0.0000000E+00
   20.21369       20.21369       21.48891       21.48891       171.4586    
   241.2517    
   2.012900       218.2925       216.2684       207.7865      -10.50606    
  -8.481895       210.5965       231.4610       1.009149      0.9927565    
  0.9942966       1.019898       1.019691      4.9934659E-02 -9.2812181E-02
 -6.6936217E-02  0.1328919      9.9204019E-02   218.2925       216.2684    
  -21.23088      -19.20672       199.8716       220.7362       197.0617    
  -1748.371      0.0000000E+00   8206.195       8206.195      -250.5615    
   3511.415      0.0000000E+00  0.0000000E+00  0.0000000E+00  0.0000000E+00
   20.22693       20.22693       21.50884       21.50884       171.8836    
   241.9671    
   2.013000       218.3221       216.2962       207.8193      -10.50284    
  -8.476898       210.6011       231.5321       1.009118      0.9928073    
  0.9943397       1.019813       1.019608     -0.3081033      0.5074504    
  0.4308287     -0.8428536     -0.8325716       218.3221       216.2962    
  -21.22644      -19.20050       199.8775       220.8085       197.0957    
  -1752.111      0.0000000E+00   8206.324       8206.324      -238.6803    
   3512.175      0.0000000E+00  0.0000000E+00  0.0000000E+00  0.0000000E+00
   20.23104       20.23104       21.50341       21.50341       171.9310    
   242.0350    
